Data from T1_Reflection__14__13-31-59-053.txt Node

Date: Thu Jun 03 13:31:59 CEST 2021
User: mabdelazizm
Spectrometer: FLMS18565
Trigger mode: 0
Integration Time (sec): 2.000000E0
Scans to average: 1
Electric dark correction enabled: true
Nonlinearity correction enabled: false
Boxcar width: 12
XAxis mode: Wavelengths
Number of Pixels in Spectrum: 2048
>>>>>Begin Spectral Data<<<<<
179.071	86.7
179.452	109.31
179.833	101.79
180.214	108.09
180.595	132.72
180.977	140.78
181.358	146.49
181.739	146.57
182.12	133.77
182.501	130.49
182.882	150.74
183.262	166.83
183.643	105.83
184.024	74.33
184.405	42.22
184.786	21.24
185.166	16.16
185.547	-7.43
185.927	-3.15
186.308	2.46
186.689	14.16
187.069	21.9
187.449	23.3
187.83	24.84
188.21	20.56
188.59	17.67
188.971	11.11
189.351	8.86
189.731	7.36
190.111	6.13
190.491	4.12
190.871	7.27
191.251	8.29
191.631	10.82
192.011	13.4
192.391	14.66
192.771	12.63
193.151	12.96
193.531	12.37
193.91	10.36
194.29	10.56
194.67	10.18
195.049	11.4
195.429	9.85
195.808	8.7
196.188	7.97
196.567	5.01
196.946	5.4
197.326	4.88
197.705	5.85
198.084	6.11
198.464	5.62
198.843	6.11
199.222	5.93
199.601	7.15
199.98	6.15
200.359	6.57
200.738	6.17
201.117	4.77
201.496	3.09
201.875	2.48
202.254	2.75
202.632	1.92
203.011	1.76
203.39	3.81
203.768	6.24
204.147	6.04
204.525	5.97
204.904	8.01
205.282	8.55
205.661	5.16
206.039	7.11
206.418	6.98
206.796	7.5
207.174	7.06
207.552	7.36
207.931	7.4
208.309	7.43
208.687	7.75
209.065	7.36
209.443	7.18
209.821	5.58
210.199	6.34
210.577	7.29
210.954	8.57
211.332	8.18
211.71	7.65
212.088	9.3
212.465	9.34
212.843	8.87
213.221	7.17
213.598	7.57
213.976	7.53
214.353	6.44
214.731	7.01
215.108	8.94
215.485	8.03
215.863	7.21
216.24	7.57
216.617	8.23
216.994	8.34
217.371	8.1
217.749	7.28
218.126	7.39
218.503	6.19
218.88	6.86
219.256	7.46
219.633	6.67
220.01	6.54
220.387	6.07
220.764	6.29
221.14	6.34
221.517	5.13
221.894	5.33
222.27	5.27
222.647	4.58
223.023	4.35
223.4	4.45
223.776	4.36
224.153	4.27
224.529	3.74
224.905	4.04
225.282	3.83
225.658	3.6
226.034	3.33
226.41	3.44
226.786	3.89
227.162	4.04
227.538	3.59
227.914	3.84
228.29	4
228.666	3.79
229.042	3.63
229.418	3.51
229.793	3.5
230.169	3.37
230.545	3.42
230.92	3.53
231.296	3.26
231.672	3.16
232.047	3.3
232.422	3.3
232.798	3.31
233.173	3.27
233.549	3.02
233.924	3.04
234.299	2.86
234.674	2.84
235.05	2.68
235.425	2.68
235.8	2.59
236.175	2.51
236.55	2.43
236.925	2.39
237.3	2.29
237.675	2.14
238.049	2.19
238.424	2.22
238.799	2.25
239.174	2.24
239.548	2.24
239.923	2.17
240.297	2.11
240.672	2.18
241.046	2.21
241.421	2.2
241.795	2.18
242.17	2.24
242.544	2.26
242.918	2.42
243.293	2.48
243.667	2.5
244.041	2.52
244.415	2.53
244.789	2.45
245.163	2.46
245.537	2.4
245.911	2.37
246.285	2.36
246.659	2.36
247.033	2.36
247.406	2.33
247.78	2.36
248.154	2.34
248.528	2.34
248.901	2.3
249.275	2.38
249.648	2.38
250.022	2.42
250.395	2.37
250.769	2.35
251.142	2.34
251.515	2.19
251.888	2.18
252.262	2.07
252.635	2.01
253.008	1.96
253.381	1.99
253.754	2.02
254.127	2.06
254.5	2.02
254.873	2.05
255.246	2.04
255.619	2.08
255.992	2.09
256.364	2.07
256.737	2.03
257.11	1.97
257.483	1.95
257.855	1.95
258.228	1.98
258.6	1.9
258.973	1.9
259.345	1.83
259.718	1.84
260.09	1.86
260.462	1.89
260.834	1.93
261.207	1.9
261.579	1.93
261.951	1.93
262.323	1.92
262.695	1.86
263.067	1.86
263.439	1.86
263.811	1.86
264.183	1.84
264.555	1.88
264.927	1.86
265.298	1.86
265.67	1.85
266.042	1.84
266.413	1.86
266.785	1.85
267.156	1.85
267.528	1.83
267.899	1.9
268.271	1.88
268.642	1.89
269.013	1.82
269.385	1.8
269.756	1.76
270.127	1.75
270.498	1.7
270.87	1.67
271.241	1.66
271.612	1.7
271.983	1.72
272.354	1.7
272.724	1.67
273.095	1.66
273.466	1.63
273.837	1.62
274.208	1.58
274.578	1.6
274.949	1.61
275.32	1.6
275.69	1.61
276.061	1.57
276.431	1.54
276.802	1.53
277.172	1.45
277.542	1.5
277.913	1.5
278.283	1.55
278.653	1.54
279.023	1.56
279.394	1.57
279.764	1.59
280.134	1.51
280.504	1.51
280.874	1.5
281.244	1.51
281.614	1.51
281.983	1.57
282.353	1.57
282.723	1.57
283.093	1.57
283.462	1.55
283.832	1.48
284.202	1.49
284.571	1.5
284.941	1.5
285.31	1.46
285.68	1.45
286.049	1.47
286.418	1.46
286.788	1.47
287.157	1.41
287.526	1.42
287.895	1.4
288.264	1.37
288.633	1.33
289.002	1.33
289.371	1.39
289.74	1.43
290.109	1.42
290.478	1.38
290.847	1.31
291.216	1.26
291.585	1.26
291.953	1.22
292.322	1.19
292.691	1.23
293.059	1.24
293.428	1.2
293.796	1.16
294.165	1.1
294.533	1.12
294.901	1.12
295.27	1.12
295.638	1.14
296.006	1.05
296.374	1.08
296.743	1.05
297.111	1.04
297.479	1
297.847	1.02
298.215	0.97
298.583	0.98
298.95	0.96
299.318	0.98
299.686	0.98
300.054	1.05
300.422	1.05
300.789	1.03
301.157	1.08
301.525	1.09
301.892	1.06
302.26	1.11
302.627	1.12
302.994	1.11
303.362	1.19
303.729	1.21
304.097	1.21
304.464	1.17
304.831	1.17
305.198	1.16
305.565	1.16
305.932	1.18
306.299	1.22
306.666	1.26
307.033	1.25
307.4	1.35
307.767	1.32
308.134	1.26
308.501	1.23
308.867	1.24
309.234	1.18
309.601	1.19
309.967	1.24
310.334	1.23
310.701	1.24
311.067	1.24
311.433	1.21
311.8	1.2
312.166	1.25
312.533	1.21
312.899	1.23
313.265	1.25
313.631	1.24
313.997	1.21
314.363	1.22
314.729	1.23
315.096	1.2
315.461	1.2
315.827	1.2
316.193	1.23
316.559	1.16
316.925	1.14
317.291	1.12
317.656	1.12
318.022	1.16
318.388	1.18
318.753	1.13
319.119	1.09
319.484	1.1
319.85	1.06
320.215	1.06
320.581	1.03
320.946	1.05
321.311	0.98
321.676	1.03
322.042	0.99
322.407	1
322.772	0.98
323.137	1.01
323.502	1.05
323.867	0.99
324.232	1
324.597	0.96
324.962	0.92
325.327	0.88
325.691	0.95
326.056	0.98
326.421	0.96
326.785	1
327.15	0.99
327.514	0.91
327.879	0.95
328.243	0.9
328.608	0.87
328.972	0.93
329.337	0.97
329.701	0.99
330.065	1.03
330.429	1.08
330.794	1
331.158	0.98
331.522	0.91
331.886	0.95
332.25	0.92
332.614	0.92
332.978	0.97
333.342	0.97
333.705	0.99
334.069	0.99
334.433	1
334.797	0.93
335.16	0.89
335.524	0.99
335.887	0.94
336.251	0.89
336.614	0.98
336.978	0.93
337.341	0.97
337.705	0.95
338.068	1
338.431	0.99
338.794	0.99
339.158	0.88
339.521	0.82
339.884	0.8
340.247	0.83
340.61	0.82
340.973	0.81
341.336	0.84
341.699	0.84
342.062	0.81
342.424	0.72
342.787	0.73
343.15	0.74
343.512	0.69
343.875	0.7
344.238	0.75
344.6	0.75
344.963	0.73
345.325	0.8
345.688	0.78
346.05	0.74
346.412	0.71
346.775	0.67
347.137	0.6
347.499	0.58
347.861	0.58
348.223	0.64
348.585	0.68
348.947	0.72
349.309	0.73
349.671	0.79
350.033	0.75
350.395	0.73
350.757	0.74
351.118	0.77
351.48	0.91
351.842	0.89
352.203	0.89
352.565	0.95
352.927	0.97
353.288	0.94
353.65	0.91
354.011	0.94
354.372	0.9
354.734	0.91
355.095	0.98
355.456	1.02
355.817	1.02
356.179	1.03
356.54	1.04
356.901	1.01
357.262	0.97
357.623	1
357.984	1.01
358.345	1.04
358.705	1.01
359.066	1.03
359.427	1.05
359.788	1.01
360.148	0.97
360.509	0.87
360.87	0.83
361.23	0.81
361.591	0.79
361.951	0.79
362.312	0.81
362.672	0.78
363.032	0.83
363.393	0.81
363.753	0.83
364.113	0.77
364.473	0.75
364.833	0.83
365.193	0.82
365.553	0.81
365.913	0.8
366.273	0.78
366.633	0.72
366.993	0.69
367.353	0.59
367.713	0.53
368.072	0.52
368.432	0.47
368.792	0.47
369.151	0.44
369.511	0.45
369.87	0.56
370.23	0.59
370.589	0.57
370.949	0.56
371.308	0.53
371.667	0.53
372.027	0.44
372.386	0.43
372.745	0.42
373.104	0.45
373.463	0.45
373.822	0.42
374.181	0.4
374.54	0.41
374.899	0.44
375.258	0.45
375.617	0.47
375.975	0.49
376.334	0.51
376.693	0.65
377.052	0.75
377.41	0.79
377.769	0.85
378.127	0.86
378.486	0.9
378.844	0.84
379.202	0.86
379.561	0.92
379.919	0.92
380.277	0.94
380.636	0.96
380.994	0.94
381.352	0.97
381.71	1.03
382.068	1.1
382.426	1.11
382.784	1.06
383.142	1.08
383.5	1.04
383.857	1.1
384.215	1.23
384.573	1.21
384.931	1.24
385.288	1.27
385.646	1.26
386.003	1.22
386.361	1.28
386.718	1.31
387.076	1.43
387.433	1.55
387.791	1.61
388.148	1.65
388.505	1.7
388.862	1.79
389.22	1.93
389.577	2.08
389.934	2.2
390.291	2.28
390.648	2.36
391.005	2.5
391.362	2.61
391.718	2.75
392.075	2.97
392.432	3.1
392.789	3.25
393.145	3.35
393.502	3.64
393.859	3.86
394.215	4.04
394.572	4.16
394.928	4.35
395.285	4.54
395.641	4.76
395.997	4.98
396.354	5.12
396.71	5.41
397.066	5.71
397.422	6
397.778	6.28
398.134	6.5
398.491	6.82
398.846	7.22
399.202	7.58
399.558	7.84
399.914	8.16
400.27	8.53
400.626	8.92
400.981	9.22
401.337	9.74
401.693	10.12
402.048	10.65
402.404	11.03
402.759	11.44
403.115	11.96
403.47	12.48
403.826	13.01
404.181	13.46
404.536	13.88
404.892	14.38
405.247	14.84
405.602	15.36
405.957	15.82
406.312	16.29
406.667	16.7
407.022	17.24
407.377	17.69
407.732	18.13
408.087	18.61
408.442	19.28
408.796	19.76
409.151	20.27
409.506	20.8
409.86	21.39
410.215	21.88
410.57	22.35
410.924	22.67
411.279	23.14
411.633	23.56
411.987	23.98
412.342	24.46
412.696	24.95
413.05	25.48
413.404	26.02
413.758	26.44
414.113	26.94
414.467	27.32
414.821	27.68
415.175	28.18
415.529	28.72
415.882	29.16
416.236	29.53
416.59	30.01
416.944	30.44
417.298	30.74
417.651	31.08
418.005	31.44
418.358	31.85
418.712	32.12
419.065	32.37
419.419	32.76
419.772	33.11
420.126	33.44
420.479	33.77
420.832	34.01
421.185	34.26
421.539	34.49
421.892	34.8
422.245	34.99
422.598	35.18
422.951	35.5
423.304	35.84
423.657	36.15
424.01	36.45
424.363	36.74
424.715	36.95
425.068	37.26
425.421	37.39
425.773	37.64
426.126	37.89
426.479	38.16
426.831	38.43
427.184	38.57
427.536	38.68
427.889	38.99
428.241	39.09
428.593	39.39
428.945	39.59
429.298	39.8
429.65	40.04
430.002	40.31
430.354	40.47
430.706	40.59
431.058	40.75
431.41	41.01
431.762	41.17
432.114	41.16
432.466	41.29
432.817	41.29
433.169	41.5
433.521	41.75
433.872	41.9
434.224	42.07
434.576	42.27
434.927	42.35
435.279	42.52
435.63	42.62
435.981	42.86
436.333	43.13
436.684	43.08
437.035	43.28
437.387	43.43
437.738	43.47
438.089	43.52
438.44	43.66
438.791	43.7
439.142	43.76
439.493	43.84
439.844	43.79
440.195	43.86
440.545	43.79
440.896	44.07
441.247	44.17
441.598	44.29
441.948	44.25
442.299	44.26
442.649	44.23
443	44.33
443.35	44.34
443.701	44.37
444.051	44.31
444.401	44.39
444.752	44.35
445.102	44.25
445.452	44.34
445.802	44.34
446.152	44.28
446.502	44.27
446.852	44.36
447.202	44.24
447.552	44.28
447.902	44.47
448.252	44.49
448.602	44.87
448.952	44.84
449.301	44.87
449.651	44.75
450.001	44.76
450.35	44.77
450.7	44.74
451.049	44.61
451.399	44.68
451.748	44.76
452.097	44.68
452.447	44.64
452.796	44.75
453.145	44.68
453.494	44.65
453.843	44.79
454.193	44.74
454.542	44.8
454.891	44.78
455.239	44.74
455.588	44.6
455.937	44.66
456.286	44.6
456.635	44.47
456.984	44.4
457.332	44.12
457.681	44.08
458.03	44.09
458.378	44.11
458.727	44.04
459.075	43.89
459.423	44.05
459.772	44.18
460.12	44.05
460.468	43.82
460.817	43.66
461.165	43.79
461.513	43.67
461.861	43.6
462.209	43.43
462.557	43.29
462.905	43.11
463.253	42.91
463.601	42.8
463.949	42.79
464.297	42.84
464.644	42.76
464.992	42.61
465.34	42.5
465.687	42.37
466.035	42.26
466.383	42.15
466.73	41.95
467.078	41.75
467.425	41.59
467.772	41.48
468.12	41.17
468.467	40.98
468.814	40.9
469.161	40.73
469.508	40.73
469.856	40.41
470.203	40.15
470.55	40.01
470.897	39.97
471.243	39.84
471.59	39.78
471.937	39.68
472.284	39.56
472.631	39.35
472.977	39.11
473.324	38.95
473.671	38.82
474.017	38.57
474.364	38.5
474.71	38.25
475.057	38.13
475.403	38.05
475.749	37.93
476.096	37.81
476.442	37.68
476.788	37.52
477.134	37.41
477.48	37.2
477.826	37.05
478.172	36.9
478.518	36.85
478.864	36.64
479.21	36.45
479.556	36.14
479.902	35.94
480.248	35.81
480.593	35.63
480.939	35.47
481.285	35.33
481.63	35.18
481.976	35.08
482.321	34.92
482.667	34.85
483.012	34.64
483.357	34.56
483.703	34.46
484.048	34.32
484.393	34.12
484.738	34.06
485.084	33.93
485.429	33.71
485.774	33.56
486.119	33.49
486.464	33.47
486.808	33.24
487.153	33.03
487.498	32.87
487.843	32.69
488.188	32.61
488.532	32.48
488.877	32.29
489.222	32.14
489.566	31.9
489.911	31.68
490.255	31.59
490.6	31.29
490.944	31.16
491.288	30.94
491.633	30.77
491.977	30.63
492.321	30.42
492.665	30.23
493.009	30.12
493.353	29.86
493.697	29.68
494.041	29.61
494.385	29.47
494.729	29.23
495.073	28.91
495.417	28.75
495.76	28.63
496.104	28.51
496.448	28.4
496.791	28.27
497.135	28.1
497.479	27.91
497.822	27.78
498.165	27.65
498.509	27.54
498.852	27.28
499.196	27.22
499.539	27.03
499.882	26.97
500.225	26.86
500.568	26.77
500.911	26.56
501.254	26.43
501.597	26.29
501.94	26.15
502.283	26.05
502.626	25.93
502.969	25.81
503.312	25.74
503.654	25.71
503.997	25.6
504.34	25.44
504.682	25.36
505.025	25.19
505.367	25.02
505.71	24.93
506.052	24.89
506.395	24.8
506.737	24.71
507.079	24.68
507.421	24.63
507.764	24.53
508.106	24.39
508.448	24.17
508.79	24.02
509.132	23.87
509.474	23.87
509.816	23.78
510.158	23.62
510.499	23.55
510.841	23.49
511.183	23.4
511.525	23.21
511.866	23.1
512.208	22.97
512.549	22.84
512.891	22.66
513.232	22.59
513.574	22.53
513.915	22.52
514.256	22.33
514.598	22.16
514.939	22.08
515.28	22
515.621	21.81
515.962	21.69
516.303	21.6
516.644	21.55
516.985	21.53
517.326	21.41
517.667	21.34
518.008	21.11
518.349	21.05
518.69	20.96
519.03	20.81
519.371	20.68
519.712	20.56
520.052	20.43
520.393	20.28
520.733	20.19
521.074	20.16
521.414	20.15
521.754	20.03
522.095	19.96
522.435	19.85
522.775	19.91
523.115	19.78
523.455	19.63
523.795	19.57
524.135	19.54
524.475	19.32
524.815	19.15
525.155	19.07
525.495	18.94
525.835	18.9
526.175	18.67
526.514	18.62
526.854	18.47
527.194	18.43
527.533	18.4
527.873	18.32
528.212	18.17
528.552	18.2
528.891	18.18
529.23	18.12
529.57	18.01
529.909	17.87
530.248	17.74
530.587	17.67
530.927	17.54
531.266	17.33
531.605	17.29
531.944	17.15
532.283	16.99
532.621	16.84
532.96	16.83
533.299	16.76
533.638	16.79
533.977	16.71
534.315	16.69
534.654	16.72
534.992	16.67
535.331	16.7
535.67	16.62
536.008	16.55
536.346	16.6
536.685	16.66
537.023	16.52
537.361	16.31
537.7	16.22
538.038	16.14
538.376	16.12
538.714	16.15
539.052	16.08
539.39	16.08
539.728	15.96
540.066	15.83
540.404	15.77
540.741	15.74
541.079	15.76
541.417	15.81
541.755	15.82
542.092	15.62
542.43	15.59
542.767	15.53
543.105	15.53
543.442	15.55
543.78	15.37
544.117	15.41
544.454	15.41
544.792	15.18
545.129	15.09
545.466	15.14
545.803	15.24
546.14	15.21
546.477	15.21
546.814	15.31
547.151	15.28
547.488	15.31
547.825	15.11
548.162	15.23
548.499	15.23
548.835	15.22
549.172	15.14
549.509	15.11
549.845	15.04
550.182	15
550.518	15.01
550.855	14.98
551.191	14.98
551.528	15
551.864	14.85
552.2	15
552.537	14.92
552.873	14.81
553.209	14.82
553.545	14.73
553.881	14.66
554.217	14.5
554.553	14.53
554.889	14.52
555.225	14.49
555.561	14.46
555.896	14.39
556.232	14.49
556.568	14.53
556.903	14.67
557.239	14.61
557.575	14.65
557.91	14.66
558.245	14.74
558.581	14.69
558.916	14.69
559.252	14.88
559.587	14.91
559.922	14.79
560.257	14.94
560.592	14.95
560.928	15
561.263	15.16
561.598	15.2
561.933	15.25
562.267	15.38
562.602	15.59
562.937	15.62
563.272	15.63
563.607	15.59
563.941	15.58
564.276	15.79
564.611	15.78
564.945	15.75
565.28	15.7
565.614	15.87
565.949	15.97
566.283	15.92
566.617	16.01
566.951	16.15
567.286	16.13
567.62	16.05
567.954	15.98
568.288	16.11
568.622	16.18
568.956	16.19
569.29	16.24
569.624	16.18
569.958	16.22
570.292	16.28
570.626	16.25
570.959	16.29
571.293	16.36
571.627	16.44
571.96	16.49
572.294	16.51
572.627	16.44
572.961	16.5
573.294	16.47
573.627	16.5
573.961	16.54
574.294	16.56
574.627	16.68
574.961	16.64
575.294	16.67
575.627	16.76
575.96	16.76
576.293	16.85
576.626	16.82
576.959	16.86
577.292	16.82
577.624	16.81
577.957	16.9
578.29	16.99
578.623	17.05
578.955	17.08
579.288	17.12
579.62	17.1
579.953	17.14
580.285	17.18
580.618	17.31
580.95	17.37
581.282	17.42
581.615	17.5
581.947	17.58
582.279	17.62
582.611	17.63
582.943	17.68
583.275	17.73
583.607	17.84
583.939	17.89
584.271	18.04
584.603	18.08
584.935	18.19
585.267	18.16
585.598	18.28
585.93	18.3
586.262	18.32
586.593	18.33
586.925	18.44
587.256	18.52
587.588	18.54
587.919	18.68
588.25	18.78
588.582	18.86
588.913	18.9
589.244	19.03
589.575	19.17
589.907	19.33
590.238	19.5
590.569	19.66
590.9	19.79
591.231	19.84
591.562	19.96
591.892	20.08
592.223	20.29
592.554	20.48
592.885	20.69
593.215	20.8
593.546	20.94
593.877	21.05
594.207	21.19
594.538	21.31
594.868	21.4
595.198	21.42
595.529	21.57
595.859	21.78
596.189	21.96
596.52	22.12
596.85	22.25
597.18	22.37
597.51	22.46
597.84	22.57
598.17	22.71
598.5	22.69
598.83	22.83
599.16	23.08
599.489	23.28
599.819	23.43
600.149	23.5
600.479	23.67
600.808	23.78
601.138	23.89
601.467	24.09
601.797	24.24
602.126	24.44
602.456	24.74
602.785	24.93
603.114	25.25
603.443	25.56
603.773	25.76
604.102	26.04
604.431	26.07
604.76	26.23
605.089	26.47
605.418	26.65
605.747	26.82
606.076	27.02
606.405	27.15
606.733	27.46
607.062	27.63
607.391	27.85
607.72	27.99
608.048	28.38
608.377	28.84
608.705	29.15
609.034	29.62
609.362	29.87
609.69	30.19
610.019	30.54
610.347	30.77
610.675	31.05
611.004	31.5
611.332	31.76
611.66	32.01
611.988	32.37
612.316	32.38
612.644	32.72
612.972	32.88
613.3	33.09
613.627	33.44
613.955	33.76
614.283	34.04
614.611	34.44
614.938	34.7
615.266	35.05
615.593	35.18
615.921	35.6
616.248	35.82
616.576	36
616.903	36.18
617.23	36.04
617.558	36.66
617.885	37.03
618.212	37.43
618.539	38
618.866	38.24
619.193	38.3
619.52	38.65
619.847	38.97
620.174	39.1
620.501	39.5
620.828	39.52
621.155	39.73
621.481	40.04
621.808	40.12
622.135	40.36
622.461	40.77
622.788	40.92
623.114	41.28
623.441	41.25
623.767	41.65
624.093	41.88
624.42	42.11
624.746	42.28
625.072	42.42
625.398	43.16
625.725	43.15
626.051	43.35
626.377	43.45
626.703	43.46
627.029	43.74
627.354	44.09
627.68	43.93
628.006	44.08
628.332	44.53
628.658	44.69
628.983	44.88
629.309	45.2
629.634	45.39
629.96	45.7
630.285	45.84
630.611	45.85
630.936	45.9
631.262	45.86
631.587	46.35
631.912	46.47
632.237	46.76
632.562	47.39
632.887	47.99
633.213	49.11
633.538	49.06
633.863	49.21
634.187	49.08
634.512	49.47
634.837	49.67
635.162	49.69
635.487	49.94
635.811	50.41
636.136	50.48
636.461	50.54
636.785	50.8
637.11	51.45
637.434	51.51
637.758	52.18
638.083	52.65
638.407	52.91
638.731	53.28
639.056	53.79
639.38	53.94
639.704	54.04
640.028	54.91
640.352	54.98
640.676	54.84
641	54.51
641.324	54.24
641.648	53.86
641.972	53.73
642.295	54.62
642.619	54.81
642.943	55.02
643.266	55.04
643.59	54.97
643.913	55.18
644.237	54.96
644.56	54.77
644.884	54.75
645.207	55.33
645.53	55.79
645.854	55.28
646.177	55.04
646.5	55.09
646.823	55.08
647.146	55.21
647.469	55.5
647.792	55.91
648.115	55.19
648.438	55.3
648.761	56.22
649.084	57.1
649.406	56.8
649.729	56.69
650.052	56.81
650.374	56.79
650.697	56.95
651.019	57.21
651.342	57.41
651.664	57.48
651.987	57.47
652.309	57.62
652.631	57.69
652.953	57.97
653.276	57.88
653.598	57.95
653.92	58.15
654.242	58.29
654.564	58.36
654.886	58.34
655.208	58.35
655.53	58.33
655.851	58.07
656.173	58.18
656.495	58.3
656.816	58.01
657.138	57.82
657.46	58.29
657.781	59.56
658.103	60.66
658.424	60.96
658.746	61.24
659.067	60.61
659.388	60.36
