Data from T1_Reflection__42__13-53-35-011.txt Node

Date: Thu Jun 03 13:53:35 CEST 2021
User: mabdelazizm
Spectrometer: FLMS18565
Trigger mode: 0
Integration Time (sec): 2.000000E0
Scans to average: 1
Electric dark correction enabled: true
Nonlinearity correction enabled: false
Boxcar width: 12
XAxis mode: Wavelengths
Number of Pixels in Spectrum: 2048
>>>>>Begin Spectral Data<<<<<
179.071	112.58
179.452	128.41
179.833	108.23
180.214	104.05
180.595	109.62
180.977	118.69
181.358	118.52
181.739	120.74
182.12	100.78
182.501	110.27
182.882	115.86
183.262	110.05
183.643	62.68
184.024	46.96
184.405	27.08
184.786	14.42
185.166	14.72
185.547	0.46
185.927	11.91
186.308	15.62
186.689	11.97
187.069	18.4
187.449	18.53
187.83	10.55
188.21	10.84
188.59	2.82
188.971	-0.16
189.351	4.52
189.731	4.7
190.111	3.71
190.491	0.89
190.871	5.94
191.251	6.91
191.631	8.5
192.011	9.75
192.391	12.54
192.771	13.95
193.151	14.85
193.531	15.1
193.91	16.13
194.29	15.65
194.67	13.95
195.049	13.92
195.429	12.13
195.808	9.03
196.188	9.28
196.567	6.04
196.946	6.4
197.326	7.87
197.705	9.7
198.084	13.4
198.464	13.33
198.843	12.78
199.222	12.1
199.601	14.52
199.98	14.54
200.359	13.08
200.738	13.58
201.117	13.72
201.496	11.23
201.875	10.22
202.254	9.43
202.632	9.61
203.011	9.47
203.39	9.97
203.768	11.97
204.147	10.63
204.525	11.71
204.904	14.35
205.282	15.46
205.661	15.1
206.039	17.3
206.418	17.16
206.796	18.52
207.174	17.55
207.552	16.76
207.931	15.04
208.309	14.24
208.687	14.5
209.065	14.55
209.443	14.86
209.821	13.69
210.199	12.65
210.577	12.83
210.954	14.11
211.332	13.52
211.71	12.54
212.088	13.47
212.465	12
212.843	10.58
213.221	9.26
213.598	10.08
213.976	8.91
214.353	6.29
214.731	7.59
215.108	7.59
215.485	6.78
215.863	6.25
216.24	5.56
216.617	5.25
216.994	5.21
217.371	5.53
217.749	4.82
218.126	5.28
218.503	5.37
218.88	5.89
219.256	6.81
219.633	6.74
220.01	5.74
220.387	7.03
220.764	6.79
221.14	6.58
221.517	5.52
221.894	6.01
222.27	6.33
222.647	5.79
223.023	5.77
223.4	6.01
223.776	6.47
224.153	5.97
224.529	5.99
224.905	6.23
225.282	6.39
225.658	6.46
226.034	6.33
226.41	6.42
226.786	6.91
227.162	6.85
227.538	6.22
227.914	6.02
228.29	5.79
228.666	5.47
229.042	5.57
229.418	5.73
229.793	5.33
230.169	5.43
230.545	5.5
230.92	5.79
231.296	5.58
231.672	5.32
232.047	5.35
232.422	5.36
232.798	5.26
233.173	5.12
233.549	4.87
233.924	4.74
234.299	4.48
234.674	4.35
235.05	4.13
235.425	4.1
235.8	3.99
236.175	3.8
236.55	3.84
236.925	3.85
237.3	3.72
237.675	3.71
238.049	3.7
238.424	3.7
238.799	3.71
239.174	3.65
239.548	3.57
239.923	3.59
240.297	3.5
240.672	3.59
241.046	3.66
241.421	3.73
241.795	3.74
242.17	3.72
242.544	3.75
242.918	3.9
243.293	3.93
243.667	3.96
244.041	3.94
244.415	3.95
244.789	3.92
245.163	3.9
245.537	3.92
245.911	3.88
246.285	3.91
246.659	3.9
247.033	3.91
247.406	3.86
247.78	3.79
248.154	3.73
248.528	3.68
248.901	3.68
249.275	3.64
249.648	3.59
250.022	3.59
250.395	3.56
250.769	3.52
251.142	3.5
251.515	3.46
251.888	3.44
252.262	3.37
252.635	3.34
253.008	3.31
253.381	3.36
253.754	3.38
254.127	3.36
254.5	3.36
254.873	3.36
255.246	3.38
255.619	3.4
255.992	3.39
256.364	3.35
256.737	3.35
257.11	3.37
257.483	3.37
257.855	3.42
258.228	3.4
258.6	3.4
258.973	3.41
259.345	3.38
259.718	3.34
260.09	3.33
260.462	3.37
260.834	3.38
261.207	3.37
261.579	3.38
261.951	3.38
262.323	3.31
262.695	3.28
263.067	3.29
263.439	3.33
263.811	3.34
264.183	3.29
264.555	3.27
264.927	3.28
265.298	3.27
265.67	3.26
266.042	3.3
266.413	3.28
266.785	3.31
267.156	3.33
267.528	3.39
267.899	3.4
268.271	3.41
268.642	3.4
269.013	3.38
269.385	3.37
269.756	3.3
270.127	3.3
270.498	3.26
270.87	3.21
271.241	3.22
271.612	3.28
271.983	3.25
272.354	3.17
272.724	3.11
273.095	3.11
273.466	3.1
273.837	3.1
274.208	3.08
274.578	3.12
274.949	3.17
275.32	3.15
275.69	3.1
276.061	3.09
276.431	3.06
276.802	2.98
277.172	2.98
277.542	2.92
277.913	2.84
278.283	2.82
278.653	2.78
279.023	2.85
279.394	2.82
279.764	2.83
280.134	2.84
280.504	2.8
280.874	2.81
281.244	2.81
281.614	2.84
281.983	2.87
282.353	2.83
282.723	2.82
283.093	2.77
283.462	2.72
283.832	2.68
284.202	2.64
284.571	2.63
284.941	2.67
285.31	2.58
285.68	2.55
286.049	2.58
286.418	2.5
286.788	2.64
287.157	2.61
287.526	2.7
287.895	2.7
288.264	2.64
288.633	2.6
289.002	2.57
289.371	2.56
289.74	2.57
290.109	2.55
290.478	2.54
290.847	2.51
291.216	2.53
291.585	2.49
291.953	2.44
292.322	2.48
292.691	2.48
293.059	2.47
293.428	2.46
293.796	2.4
294.165	2.37
294.533	2.39
294.901	2.4
295.27	2.35
295.638	2.4
296.006	2.21
296.374	2.26
296.743	2.19
297.111	2.19
297.479	2.19
297.847	2.19
298.215	2.14
298.583	2.11
298.95	2.08
299.318	2.06
299.686	2.06
300.054	2.13
300.422	2.06
300.789	2.09
301.157	2.17
301.525	2.08
301.892	2.05
302.26	2.04
302.627	2.06
302.994	2.09
303.362	2.11
303.729	2.12
304.097	2.1
304.464	2.08
304.831	2.07
305.198	2.11
305.565	2.12
305.932	2.1
306.299	2.07
306.666	2.06
307.033	2.06
307.4	2.16
307.767	2.13
308.134	2.14
308.501	2.12
308.867	2.08
309.234	1.98
309.601	1.97
309.967	1.96
310.334	1.91
310.701	1.91
311.067	1.89
311.433	1.89
311.8	1.86
312.166	1.82
312.533	1.84
312.899	1.83
313.265	1.88
313.631	1.89
313.997	1.86
314.363	1.87
314.729	1.86
315.096	1.81
315.461	1.84
315.827	1.82
316.193	1.8
316.559	1.72
316.925	1.75
317.291	1.73
317.656	1.69
318.022	1.74
318.388	1.78
318.753	1.78
319.119	1.72
319.484	1.74
319.85	1.78
320.215	1.82
320.581	1.82
320.946	1.78
321.311	1.79
321.676	1.76
322.042	1.77
322.407	1.7
322.772	1.7
323.137	1.71
323.502	1.66
323.867	1.59
324.232	1.62
324.597	1.63
324.962	1.61
325.327	1.59
325.691	1.63
326.056	1.62
326.421	1.59
326.785	1.61
327.15	1.58
327.514	1.52
327.879	1.53
328.243	1.56
328.608	1.55
328.972	1.57
329.337	1.53
329.701	1.53
330.065	1.59
330.429	1.59
330.794	1.56
331.158	1.5
331.522	1.51
331.886	1.54
332.25	1.5
332.614	1.55
332.978	1.6
333.342	1.6
333.705	1.58
334.069	1.57
334.433	1.61
334.797	1.54
335.16	1.53
335.524	1.53
335.887	1.52
336.251	1.48
336.614	1.53
336.978	1.5
337.341	1.48
337.705	1.45
338.068	1.49
338.431	1.52
338.794	1.49
339.158	1.37
339.521	1.36
339.884	1.33
340.247	1.39
340.61	1.31
340.973	1.27
341.336	1.27
341.699	1.25
342.062	1.23
342.424	1.18
342.787	1.19
343.15	1.21
343.512	1.18
343.875	1.19
344.238	1.22
344.6	1.24
344.963	1.25
345.325	1.33
345.688	1.31
346.05	1.27
346.412	1.29
346.775	1.29
347.137	1.19
347.499	1.19
347.861	1.2
348.223	1.24
348.585	1.24
348.947	1.25
349.309	1.18
349.671	1.27
350.033	1.29
350.395	1.27
350.757	1.3
351.118	1.43
351.48	1.48
351.842	1.45
352.203	1.46
352.565	1.52
352.927	1.54
353.288	1.55
353.65	1.51
354.011	1.52
354.372	1.46
354.734	1.45
355.095	1.53
355.456	1.52
355.817	1.48
356.179	1.46
356.54	1.46
356.901	1.42
357.262	1.44
357.623	1.48
357.984	1.48
358.345	1.53
358.705	1.45
359.066	1.44
359.427	1.46
359.788	1.41
360.148	1.3
360.509	1.28
360.87	1.23
361.23	1.16
361.591	1.08
361.951	1.08
362.312	1.08
362.672	1.09
363.032	1.13
363.393	1.14
363.753	1.18
364.113	1.15
364.473	1.2
364.833	1.25
365.193	1.27
365.553	1.26
365.913	1.26
366.273	1.21
366.633	1.16
366.993	1.11
367.353	1.11
367.713	1.12
368.072	1.11
368.432	1.12
368.792	1.12
369.151	1.08
369.511	1.09
369.87	1.22
370.23	1.26
370.589	1.28
370.949	1.34
371.308	1.32
371.667	1.34
372.027	1.27
372.386	1.25
372.745	1.24
373.104	1.28
373.463	1.26
373.822	1.25
374.181	1.23
374.54	1.24
374.899	1.32
375.258	1.33
375.617	1.31
375.975	1.36
376.334	1.38
376.693	1.45
377.052	1.46
377.41	1.46
377.769	1.47
378.127	1.46
378.486	1.49
378.844	1.44
379.202	1.4
379.561	1.48
379.919	1.47
380.277	1.44
380.636	1.47
380.994	1.44
381.352	1.44
381.71	1.5
382.068	1.51
382.426	1.43
382.784	1.42
383.142	1.51
383.5	1.5
383.857	1.52
384.215	1.62
384.573	1.66
384.931	1.66
385.288	1.65
385.646	1.62
386.003	1.6
386.361	1.66
386.718	1.72
387.076	1.79
387.433	1.86
387.791	1.88
388.148	1.97
388.505	1.93
388.862	1.94
389.22	2.02
389.577	2.08
389.934	2.2
390.291	2.21
390.648	2.18
391.005	2.26
391.362	2.42
391.718	2.48
392.075	2.52
392.432	2.56
392.789	2.6
393.145	2.62
393.502	2.74
393.859	2.88
394.215	2.98
394.572	3.09
394.928	3.2
395.285	3.29
395.641	3.37
395.997	3.55
396.354	3.58
396.71	3.74
397.066	3.89
397.422	4.06
397.778	4.25
398.134	4.48
398.491	4.65
398.846	4.81
399.202	5.08
399.558	5.27
399.914	5.45
400.27	5.67
400.626	5.9
400.981	6.09
401.337	6.36
401.693	6.61
402.048	6.88
402.404	7.18
402.759	7.43
403.115	7.76
403.47	8.13
403.826	8.48
404.181	8.77
404.536	9.1
404.892	9.35
405.247	9.73
405.602	10.08
405.957	10.49
406.312	10.79
406.667	11.11
407.022	11.49
407.377	11.91
407.732	12.26
408.087	12.68
408.442	13.14
408.796	13.59
409.151	14.07
409.506	14.59
409.86	15.17
410.215	15.79
410.57	16.32
410.924	16.87
411.279	17.33
411.633	17.87
411.987	18.38
412.342	18.9
412.696	19.43
413.05	20.06
413.404	20.62
413.758	21.32
414.113	21.88
414.467	22.43
414.821	22.9
415.175	23.65
415.529	24.28
415.882	24.94
416.236	25.48
416.59	26.23
416.944	26.89
417.298	27.56
417.651	28.15
418.005	28.72
418.358	29.36
418.712	29.96
419.065	30.47
419.419	31.02
419.772	31.56
420.126	32.14
420.479	32.78
420.832	33.37
421.185	33.91
421.539	34.5
421.892	35.11
422.245	35.61
422.598	36.07
422.951	36.65
423.304	37.2
423.657	37.71
424.01	38.31
424.363	38.85
424.715	39.4
425.068	40.08
425.421	40.56
425.773	41.04
426.126	41.6
426.479	42.11
426.831	42.65
427.184	43.15
427.536	43.5
427.889	43.96
428.241	44.41
428.593	44.92
428.945	45.38
429.298	45.75
429.65	46.17
430.002	46.59
430.354	47.06
430.706	47.32
431.058	47.77
431.41	48.3
431.762	48.66
432.114	49.15
432.466	49.62
432.817	49.85
433.169	50.2
433.521	50.52
433.872	50.67
434.224	50.94
434.576	51.27
434.927	51.46
435.279	51.69
435.63	51.96
435.981	52.1
436.333	52.48
436.684	52.61
437.035	52.93
437.387	53.08
437.738	53.26
438.089	53.47
438.44	53.59
438.791	53.82
439.142	53.97
439.493	54.27
439.844	54.43
440.195	54.42
440.545	54.58
440.896	54.78
441.247	54.75
441.598	54.94
441.948	55.22
442.299	55.37
442.649	55.61
443	55.76
443.35	55.87
443.701	55.91
444.051	56.06
444.401	56.13
444.752	56.37
445.102	56.29
445.452	56.36
445.802	56.39
446.152	56.46
446.502	56.64
446.852	56.69
447.202	56.7
447.552	56.8
447.902	56.92
448.252	56.89
448.602	56.31
448.952	56.38
449.301	56.43
449.651	56.26
450.001	56.37
450.35	56.45
450.7	56.34
451.049	56.14
451.399	56.26
451.748	56.41
452.097	56.36
452.447	56.43
452.796	56.43
453.145	56.35
453.494	56.3
453.843	56.34
454.193	56.5
454.542	56.55
454.891	56.65
455.239	56.55
455.588	56.5
455.937	56.54
456.286	56.52
456.635	56.43
456.984	56.36
457.332	57.24
457.681	57.34
458.03	57.32
458.378	57.45
458.727	57.51
459.075	57.48
459.423	57.64
459.772	57.9
460.12	57.8
460.468	57.68
460.817	57.68
461.165	57.65
461.513	57.62
461.861	57.83
462.209	57.68
462.557	57.64
462.905	57.54
463.253	57.53
463.601	57.56
463.949	57.68
464.297	57.73
464.644	57.77
464.992	57.78
465.34	57.79
465.687	57.91
466.035	57.72
466.383	57.65
466.73	57.52
467.078	57.46
467.425	57.53
467.772	57.51
468.12	57.29
468.467	57.15
468.814	57.03
469.161	57.01
469.508	57.05
469.856	57.11
470.203	57.04
470.55	56.95
470.897	56.96
471.243	56.98
471.59	56.92
471.937	56.83
472.284	56.76
472.631	56.62
472.977	56.57
473.324	56.55
473.671	56.45
474.017	56.37
474.364	56.36
474.71	56.28
475.057	56.31
475.403	56.29
475.749	56.25
476.096	56.06
476.442	55.88
476.788	55.95
477.134	55.99
477.48	56.03
477.826	55.88
478.172	55.7
478.518	55.55
478.864	55.4
479.21	55.34
479.556	55.28
479.902	55.24
480.248	55.22
480.593	55.08
480.939	54.89
481.285	54.76
481.63	54.58
481.976	54.35
482.321	54.17
482.667	54.07
483.012	53.88
483.357	53.88
483.703	53.69
484.048	53.67
484.393	53.62
484.738	53.6
485.084	53.56
485.429	53.41
485.774	53.27
486.119	53.1
486.464	52.98
486.808	52.86
487.153	52.76
487.498	52.75
487.843	52.64
488.188	52.51
488.532	52.34
488.877	52.21
489.222	52.14
489.566	52.03
489.911	51.97
490.255	52.05
490.6	52.07
490.944	52.06
491.288	51.89
491.633	51.83
491.977	51.76
492.321	51.7
492.665	51.5
493.009	51.41
493.353	51.28
493.697	51.16
494.041	51.03
494.385	50.99
494.729	50.93
495.073	50.85
495.417	50.83
495.76	50.82
496.104	50.69
496.448	50.57
496.791	50.53
497.135	50.51
497.479	50.34
497.822	50.27
498.165	50.17
498.509	50.03
498.852	49.69
499.196	49.49
499.539	49.41
499.882	49.46
500.225	49.34
500.568	49.21
500.911	49.14
501.254	49.1
501.597	49.06
501.94	48.98
502.283	49.02
502.626	49
502.969	48.86
503.312	48.8
503.654	48.87
503.997	48.76
504.34	48.62
504.682	48.57
505.025	48.46
505.367	48.27
505.71	48.08
506.052	48.02
506.395	47.92
506.737	47.89
507.079	47.87
507.421	47.93
507.764	47.94
508.106	47.74
508.448	47.56
508.79	47.52
509.132	47.35
509.474	47.23
509.816	47.1
510.158	46.81
510.499	46.7
510.841	46.5
511.183	46.38
511.525	46.26
511.866	46.21
512.208	46.03
512.549	45.9
512.891	45.76
513.232	45.69
513.574	45.62
513.915	45.57
514.256	45.57
514.598	45.47
514.939	45.45
515.28	45.28
515.621	45.08
515.962	45.05
516.303	44.98
516.644	44.93
516.985	44.87
517.326	44.68
517.667	44.66
518.008	44.66
518.349	44.59
518.69	44.59
519.03	44.44
519.371	44.43
519.712	44.41
520.052	44.26
520.393	44.11
520.733	44.08
521.074	44.01
521.414	43.95
521.754	43.78
522.095	43.67
522.435	43.56
522.775	43.4
523.115	43.38
523.455	43.26
523.795	43.33
524.135	43.35
524.475	43.19
524.815	43.02
525.155	43
525.495	42.91
525.835	42.93
526.175	42.82
526.514	42.64
526.854	42.62
527.194	42.48
527.533	42.44
527.873	42.23
528.212	42.03
528.552	42.03
528.891	42.06
529.23	41.94
529.57	41.89
529.909	41.77
530.248	41.63
530.587	41.66
530.927	41.68
531.266	41.64
531.605	41.5
531.944	41.22
532.283	40.92
532.621	40.75
532.96	40.74
533.299	40.83
533.638	40.79
533.977	40.65
534.315	40.67
534.654	40.68
534.992	40.53
535.331	40.32
535.67	40.2
536.008	40.14
536.346	40.16
536.685	40.01
537.023	39.85
537.361	39.71
537.7	39.65
538.038	39.56
538.376	39.54
538.714	39.63
539.052	39.46
539.39	39.32
539.728	39.21
540.066	39.09
540.404	39.11
540.741	39.12
541.079	39.25
541.417	39.25
541.755	38.97
542.092	38.9
542.43	38.83
542.767	38.68
543.105	38.57
543.442	38.58
543.78	38.65
544.117	38.79
544.454	38.73
544.792	38.55
545.129	38.67
545.466	38.78
545.803	38.73
546.14	38.71
546.477	38.69
546.814	38.64
547.151	38.61
547.488	38.6
547.825	38.53
548.162	38.56
548.499	38.62
548.835	38.69
549.172	38.55
549.509	38.51
549.845	38.34
550.182	38.46
550.518	38.34
550.855	38.34
551.191	38.4
551.528	38.39
551.864	38.48
552.2	38.57
552.537	38.54
552.873	38.51
553.209	38.6
553.545	38.53
553.881	38.39
554.217	38.31
554.553	38.36
554.889	38.37
555.225	38.42
555.561	38.3
555.896	38.32
556.232	38.31
556.568	38.41
556.903	38.4
557.239	38.26
557.575	38.39
557.91	38.33
558.245	38.53
558.581	38.48
558.916	38.6
559.252	38.81
559.587	38.77
559.922	38.74
560.257	38.63
560.592	38.6
560.928	38.66
561.263	38.84
561.598	38.91
561.933	38.93
562.267	39.17
562.602	39.19
562.937	39.14
563.272	39.28
563.607	39.32
563.941	39.56
564.276	39.67
564.611	39.82
564.945	39.83
565.28	39.72
565.614	39.81
565.949	39.9
566.283	39.92
566.617	39.96
566.951	39.98
567.286	39.94
567.62	39.87
567.954	39.84
568.288	39.91
568.622	39.98
568.956	39.79
569.29	39.71
569.624	39.59
569.958	39.64
570.292	39.75
570.626	39.77
570.959	39.91
571.293	39.97
571.627	39.92
571.96	40.02
572.294	40.01
572.627	39.99
572.961	39.9
573.294	39.76
573.627	39.92
573.961	40.01
574.294	40.08
574.627	40.13
574.961	40.16
575.294	40.21
575.627	40.09
575.96	40.02
576.293	40.09
576.626	40.13
576.959	40.21
577.292	40.32
577.624	40.31
577.957	40.5
578.29	40.51
578.623	40.53
578.955	40.58
579.288	40.6
579.62	40.6
579.953	40.64
580.285	40.59
580.618	40.61
580.95	40.68
581.282	40.85
581.615	41.04
581.947	41.01
582.279	41
582.611	41
582.943	41.01
583.275	40.98
583.607	41.09
583.939	41.32
584.271	41.57
584.603	41.62
584.935	41.72
585.267	41.67
585.598	41.73
585.93	41.84
586.262	41.77
586.593	41.81
586.925	41.85
587.256	41.81
587.588	41.83
587.919	41.84
588.25	42.02
588.582	42.13
588.913	42.15
589.244	42.12
589.575	42.27
589.907	42.19
590.238	42.33
590.569	42.48
590.9	42.62
591.231	42.75
591.562	42.73
591.892	42.85
592.223	42.99
592.554	42.99
592.885	43.19
593.215	43.22
593.546	43.35
593.877	43.35
594.207	43.39
594.538	43.53
594.868	43.68
595.198	43.7
595.529	43.8
595.859	43.86
596.189	44.03
596.52	44.11
596.85	44.19
597.18	44.35
597.51	44.43
597.84	44.42
598.17	44.76
598.5	44.81
598.83	44.93
599.16	45.01
599.489	44.99
599.819	45.24
600.149	45.33
600.479	45.56
600.808	45.75
601.138	45.85
601.467	46
601.797	46.22
602.126	46.65
602.456	47
602.785	47.22
603.114	47.37
603.443	47.63
603.773	47.85
604.102	48
604.431	48.15
604.76	48.33
605.089	48.54
605.418	48.71
605.747	48.97
606.076	49.07
606.405	49.15
606.733	49.49
607.062	49.7
607.391	50.04
607.72	50.4
608.048	50.7
608.377	50.99
608.705	51.14
609.034	51.25
609.362	51.21
609.69	51.57
610.019	51.63
610.347	51.65
610.675	51.7
611.004	51.75
611.332	51.93
611.66	52.16
611.988	52.27
612.316	52.41
612.644	52.63
612.972	52.67
613.3	52.62
613.627	52.83
613.955	53.02
614.283	53.29
614.611	53.53
614.938	53.45
615.266	53.67
615.593	53.64
615.921	53.83
616.248	53.95
616.576	54
616.903	54.06
617.23	54.45
617.558	55
617.885	54.95
618.212	55.4
618.539	55.78
618.866	56.04
619.193	56.1
619.52	56.33
619.847	56.38
620.174	56.46
620.501	56.82
620.828	56.87
621.155	56.74
621.481	56.88
621.808	56.78
622.135	56.72
622.461	56.75
622.788	56.72
623.114	57.08
623.441	57.07
623.767	57.25
624.093	57.46
624.42	57.36
624.746	57.52
625.072	57.84
625.398	58.02
625.725	57.9
626.051	58.14
626.377	58
626.703	57.83
627.029	57.92
627.354	58.43
627.68	58.51
628.006	58.45
628.332	58.8
628.658	58.86
628.983	58.82
629.309	59.05
629.634	59.42
629.96	59.86
630.285	60.02
630.611	59.81
630.936	59.78
631.262	59.62
631.587	59.6
631.912	59.46
632.237	59.24
632.562	59.41
632.887	59.36
633.213	59.55
633.538	59.36
633.863	59.64
634.187	59.79
634.512	59.72
634.837	59.58
635.162	59.69
635.487	59.28
635.811	59.47
636.136	59.89
636.461	59.96
636.785	60.06
637.11	60.48
637.434	61.1
637.758	61.3
638.083	61.13
638.407	61.77
638.731	62.84
639.056	63.09
639.38	63.47
639.704	63.37
640.028	64.08
640.352	64.81
640.676	65.24
641	65.42
641.324	65.21
641.648	65.08
641.972	64.65
642.295	65.31
642.619	65.32
642.943	65.79
643.266	65.54
643.59	66.14
643.913	65.85
644.237	65.49
644.56	65.17
644.884	64.89
645.207	65.06
645.53	64.35
645.854	64.7
646.177	64.76
646.5	64.66
646.823	64
647.146	64.5
647.469	64.7
647.792	65.06
648.115	64.76
648.438	64.91
648.761	67.15
649.084	68.79
649.406	68.7
649.729	68.55
650.052	68.14
650.374	67.84
650.697	68.01
651.019	68.14
651.342	68.29
651.664	68.23
651.987	68.28
652.309	68.31
652.631	68.56
652.953	68.73
653.276	68.81
653.598	69.03
653.92	68.96
654.242	68.91
654.564	68.75
654.886	68.9
655.208	68.74
655.53	68.55
655.851	68.39
656.173	68.25
656.495	68.13
656.816	67.17
657.138	66.11
657.46	65.84
657.781	65.52
658.103	66.35
658.424	66.72
658.746	66.59
