Data from T1_Reflection__27__13-41-45-034.txt Node

Date: Thu Jun 03 13:41:45 CEST 2021
User: mabdelazizm
Spectrometer: FLMS18565
Trigger mode: 0
Integration Time (sec): 2.000000E0
Scans to average: 1
Electric dark correction enabled: true
Nonlinearity correction enabled: false
Boxcar width: 12
XAxis mode: Wavelengths
Number of Pixels in Spectrum: 2048
>>>>>Begin Spectral Data<<<<<
179.071	-11.74
179.452	7.43
179.833	13.92
180.214	43.35
180.595	53.02
180.977	82.13
181.358	67.43
181.739	40.95
182.12	39.16
182.501	12.57
182.882	-4.71
183.262	-13.57
183.643	3.02
184.024	1.46
184.405	4.25
184.786	5.26
185.166	-1.87
185.547	5.08
185.927	-6.82
186.308	-2.95
186.689	3.87
187.069	6.55
187.449	9.85
187.83	4.88
188.21	9.51
188.59	5.92
188.971	8.82
189.351	8.24
189.731	1.71
190.111	1.97
190.491	-3.35
190.871	-1.59
191.251	5.22
191.631	5.53
192.011	7.25
192.391	9.67
192.771	12.32
193.151	9.75
193.531	10.13
193.91	11.46
194.29	11.66
194.67	10.93
195.049	9.31
195.429	11.95
195.808	10.21
196.188	9.55
196.567	5.76
196.946	6.18
197.326	6.34
197.705	5.02
198.084	7.08
198.464	4.69
198.843	5.02
199.222	4.53
199.601	5.19
199.98	4.91
200.359	5.82
200.738	4.74
201.117	4.98
201.496	3.56
201.875	2.46
202.254	2.09
202.632	1.86
203.011	3
203.39	2.72
203.768	3.55
204.147	3.09
204.525	2.13
204.904	2.1
205.282	3.1
205.661	2.36
206.039	5.79
206.418	5.57
206.796	6.79
207.174	6.98
207.552	6.47
207.931	4.48
208.309	3.5
208.687	4.44
209.065	4.85
209.443	4.98
209.821	4.82
210.199	3.06
210.577	2.78
210.954	3.71
211.332	3.08
211.71	1.54
212.088	2.8
212.465	1.24
212.843	0.48
213.221	-1.44
213.598	-0.2
213.976	1.01
214.353	0.2
214.731	0.71
215.108	1.45
215.485	0.4
215.863	-0.15
216.24	0.17
216.617	1.61
216.994	1.71
217.371	2.51
217.749	1.82
218.126	1.48
218.503	1.42
218.88	2.51
219.256	3
219.633	3.09
220.01	2.37
220.387	3.2
220.764	3.04
221.14	2.7
221.517	2.61
221.894	3
222.27	2.91
222.647	3.1
223.023	2.72
223.4	2.49
223.776	2.63
224.153	2.39
224.529	1.89
224.905	2.43
225.282	2.72
225.658	2.41
226.034	2.12
226.41	2.51
226.786	3.05
227.162	3.11
227.538	2.81
227.914	2.34
228.29	1.95
228.666	1.54
229.042	1.61
229.418	1.82
229.793	1.8
230.169	1.94
230.545	2.24
230.92	2.4
231.296	2.23
231.672	2.31
232.047	2.38
232.422	2.42
232.798	2.39
233.173	2.35
233.549	2.21
233.924	2.36
234.299	2.17
234.674	2.08
235.05	2
235.425	2.01
235.8	1.92
236.175	1.83
236.55	1.88
236.925	1.93
237.3	1.95
237.675	1.97
238.049	2.08
238.424	2.14
238.799	2.17
239.174	2.07
239.548	2.06
239.923	2.02
240.297	1.92
240.672	2.02
241.046	1.97
241.421	2.01
241.795	2.03
242.17	2.04
242.544	2.08
242.918	2.2
243.293	2.2
243.667	2.19
244.041	2.14
244.415	2.18
244.789	2.15
245.163	2.07
245.537	2.04
245.911	2.02
246.285	2
246.659	2.02
247.033	2
247.406	1.97
247.78	1.96
248.154	1.97
248.528	1.99
248.901	2
249.275	1.95
249.648	1.91
250.022	1.9
250.395	1.92
250.769	1.9
251.142	1.85
251.515	1.81
251.888	1.82
252.262	1.78
252.635	1.7
253.008	1.63
253.381	1.66
253.754	1.68
254.127	1.7
254.5	1.7
254.873	1.72
255.246	1.78
255.619	1.84
255.992	1.81
256.364	1.84
256.737	1.85
257.11	1.84
257.483	1.81
257.855	1.83
258.228	1.79
258.6	1.81
258.973	1.85
259.345	1.83
259.718	1.79
260.09	1.77
260.462	1.84
260.834	1.86
261.207	1.84
261.579	1.83
261.951	1.89
262.323	1.9
262.695	1.85
263.067	1.82
263.439	1.76
263.811	1.75
264.183	1.73
264.555	1.71
264.927	1.69
265.298	1.71
265.67	1.63
266.042	1.61
266.413	1.56
266.785	1.56
267.156	1.52
267.528	1.53
267.899	1.52
268.271	1.48
268.642	1.48
269.013	1.46
269.385	1.41
269.756	1.33
270.127	1.31
270.498	1.26
270.87	1.2
271.241	1.18
271.612	1.23
271.983	1.27
272.354	1.31
272.724	1.37
273.095	1.39
273.466	1.36
273.837	1.29
274.208	1.26
274.578	1.26
274.949	1.3
275.32	1.3
275.69	1.3
276.061	1.21
276.431	1.18
276.802	1.16
277.172	1.13
277.542	1.16
277.913	1.16
278.283	1.17
278.653	1.19
279.023	1.21
279.394	1.18
279.764	1.18
280.134	1.18
280.504	1.14
280.874	1.09
281.244	1.05
281.614	0.98
281.983	0.99
282.353	0.96
282.723	1
283.093	1.01
283.462	1
283.832	1.01
284.202	1.05
284.571	1.07
284.941	1.07
285.31	1.07
285.68	1.09
286.049	1.16
286.418	1.15
286.788	1.17
287.157	1.06
287.526	1.09
287.895	1.07
288.264	1.09
288.633	1.09
289.002	1.1
289.371	1.11
289.74	1.12
290.109	1.15
290.478	1.19
290.847	1.22
291.216	1.18
291.585	1.18
291.953	1.15
292.322	1.15
292.691	1.15
293.059	1.11
293.428	1.04
293.796	1
294.165	1
294.533	1.05
294.901	1.05
295.27	1
295.638	0.99
296.006	0.93
296.374	1
296.743	0.98
297.111	0.97
297.479	0.93
297.847	0.93
298.215	0.89
298.583	0.89
298.95	0.88
299.318	0.88
299.686	0.81
300.054	0.82
300.422	0.81
300.789	0.79
301.157	0.81
301.525	0.8
301.892	0.77
302.26	0.85
302.627	0.88
302.994	0.9
303.362	0.94
303.729	0.93
304.097	0.93
304.464	0.88
304.831	0.89
305.198	0.88
305.565	0.85
305.932	0.81
306.299	0.79
306.666	0.77
307.033	0.79
307.4	0.87
307.767	0.89
308.134	0.91
308.501	0.88
308.867	0.87
309.234	0.82
309.601	0.8
309.967	0.81
310.334	0.78
310.701	0.77
311.067	0.76
311.433	0.7
311.8	0.65
312.166	0.66
312.533	0.61
312.899	0.57
313.265	0.57
313.631	0.58
313.997	0.58
314.363	0.59
314.729	0.62
315.096	0.6
315.461	0.65
315.827	0.66
316.193	0.66
316.559	0.56
316.925	0.52
317.291	0.47
317.656	0.45
318.022	0.45
318.388	0.48
318.753	0.47
319.119	0.42
319.484	0.47
319.85	0.5
320.215	0.51
320.581	0.5
320.946	0.55
321.311	0.48
321.676	0.51
322.042	0.51
322.407	0.49
322.772	0.5
323.137	0.54
323.502	0.53
323.867	0.49
324.232	0.5
324.597	0.47
324.962	0.46
325.327	0.42
325.691	0.5
326.056	0.51
326.421	0.59
326.785	0.59
327.15	0.65
327.514	0.56
327.879	0.62
328.243	0.68
328.608	0.66
328.972	0.65
329.337	0.67
329.701	0.66
330.065	0.65
330.429	0.66
330.794	0.62
331.158	0.6
331.522	0.57
331.886	0.61
332.25	0.53
332.614	0.57
332.978	0.55
333.342	0.54
333.705	0.51
334.069	0.5
334.433	0.59
334.797	0.54
335.16	0.52
335.524	0.5
335.887	0.49
336.251	0.45
336.614	0.5
336.978	0.41
337.341	0.38
337.705	0.33
338.068	0.36
338.431	0.37
338.794	0.38
339.158	0.34
339.521	0.35
339.884	0.32
340.247	0.38
340.61	0.37
340.973	0.39
341.336	0.39
341.699	0.33
342.062	0.36
342.424	0.34
342.787	0.4
343.15	0.44
343.512	0.33
343.875	0.37
344.238	0.43
344.6	0.44
344.963	0.42
345.325	0.43
345.688	0.37
346.05	0.39
346.412	0.35
346.775	0.36
347.137	0.3
347.499	0.24
347.861	0.23
348.223	0.24
348.585	0.27
348.947	0.34
349.309	0.26
349.671	0.29
350.033	0.28
350.395	0.3
350.757	0.37
351.118	0.36
351.48	0.46
351.842	0.4
352.203	0.39
352.565	0.44
352.927	0.42
353.288	0.36
353.65	0.3
354.011	0.29
354.372	0.33
354.734	0.36
355.095	0.37
355.456	0.44
355.817	0.42
356.179	0.4
356.54	0.47
356.901	0.42
357.262	0.37
357.623	0.4
357.984	0.4
358.345	0.47
358.705	0.42
359.066	0.34
359.427	0.36
359.788	0.29
360.148	0.3
360.509	0.21
360.87	0.19
361.23	0.16
361.591	0.16
361.951	0.18
362.312	0.19
362.672	0.21
363.032	0.31
363.393	0.28
363.753	0.31
364.113	0.32
364.473	0.31
364.833	0.31
365.193	0.32
365.553	0.31
365.913	0.31
366.273	0.31
366.633	0.35
366.993	0.33
367.353	0.28
367.713	0.28
368.072	0.29
368.432	0.25
368.792	0.25
369.151	0.18
369.511	0.19
369.87	0.29
370.23	0.32
370.589	0.28
370.949	0.29
371.308	0.28
371.667	0.26
372.027	0.19
372.386	0.19
372.745	0.15
373.104	0.14
373.463	0.11
373.822	0.13
374.181	0.13
374.54	0.08
374.899	0.13
375.258	0.17
375.617	0.07
375.975	0.11
376.334	0.12
376.693	0.22
377.052	0.3
377.41	0.31
377.769	0.32
378.127	0.33
378.486	0.38
378.844	0.31
379.202	0.31
379.561	0.32
379.919	0.3
380.277	0.33
380.636	0.34
380.994	0.33
381.352	0.31
381.71	0.36
382.068	0.49
382.426	0.5
382.784	0.49
383.142	0.57
383.5	0.59
383.857	0.65
384.215	0.69
384.573	0.71
384.931	0.68
385.288	0.7
385.646	0.68
386.003	0.64
386.361	0.73
386.718	0.78
387.076	0.86
387.433	0.89
387.791	0.95
388.148	0.97
388.505	1.07
388.862	1.09
389.22	1.15
389.577	1.22
389.934	1.25
390.291	1.35
390.648	1.42
391.005	1.43
391.362	1.49
391.718	1.55
392.075	1.58
392.432	1.66
392.789	1.7
393.145	1.72
393.502	1.84
393.859	1.92
394.215	2.05
394.572	2.12
394.928	2.26
395.285	2.35
395.641	2.44
395.997	2.67
396.354	2.73
396.71	2.92
397.066	3.1
397.422	3.27
397.778	3.47
398.134	3.66
398.491	3.85
398.846	4.09
399.202	4.31
399.558	4.44
399.914	4.63
400.27	4.9
400.626	5.2
400.981	5.43
401.337	5.73
401.693	6
402.048	6.32
402.404	6.62
402.759	6.98
403.115	7.3
403.47	7.61
403.826	7.96
404.181	8.27
404.536	8.6
404.892	8.9
405.247	9.34
405.602	9.72
405.957	10.11
406.312	10.38
406.667	10.85
407.022	11.2
407.377	11.56
407.732	11.97
408.087	12.34
408.442	12.89
408.796	13.38
409.151	13.89
409.506	14.31
409.86	14.82
410.215	15.34
410.57	15.82
410.924	16.33
411.279	16.83
411.633	17.34
411.987	17.88
412.342	18.48
412.696	18.97
413.05	19.57
413.404	20.11
413.758	20.62
414.113	21.04
414.467	21.55
414.821	21.98
415.175	22.62
415.529	23.09
415.882	23.68
416.236	24.33
416.59	25.03
416.944	25.6
417.298	26.09
417.651	26.66
418.005	27.14
418.358	27.68
418.712	28.21
419.065	28.73
419.419	29.16
419.772	29.68
420.126	30.06
420.479	30.56
420.832	30.97
421.185	31.44
421.539	31.89
421.892	32.38
422.245	32.75
422.598	33.1
422.951	33.59
423.304	34
423.657	34.53
424.01	34.97
424.363	35.45
424.715	35.95
425.068	36.29
425.421	36.64
425.773	37.06
426.126	37.58
426.479	37.89
426.831	38.19
427.184	38.57
427.536	38.83
427.889	39.08
428.241	39.42
428.593	39.78
428.945	40.11
429.298	40.43
429.65	40.77
430.002	41.05
430.354	41.39
430.706	41.6
431.058	41.94
431.41	42.35
431.762	42.73
432.114	43
432.466	43.13
432.817	43.33
433.169	43.54
433.521	43.64
433.872	43.86
434.224	43.95
434.576	44.21
434.927	44.34
435.279	44.55
435.63	44.73
435.981	44.89
436.333	45.18
436.684	45.27
437.035	45.46
437.387	45.56
437.738	45.72
438.089	45.72
438.44	45.9
438.791	46.09
439.142	46.21
439.493	46.35
439.844	46.4
440.195	46.43
440.545	46.34
440.896	46.48
441.247	46.62
441.598	46.64
441.948	46.76
442.299	46.86
442.649	46.91
443	46.98
443.35	46.98
443.701	47.02
444.051	46.95
444.401	47.03
444.752	47.07
445.102	46.87
445.452	47.02
445.802	47.15
446.152	47.14
446.502	47.19
446.852	47.31
447.202	47.23
447.552	47.21
447.902	47.23
448.252	47.27
448.602	47.61
448.952	47.63
449.301	47.76
449.651	47.79
450.001	47.81
450.35	48
450.7	47.91
451.049	47.96
451.399	48.05
451.748	48.08
452.097	48.11
452.447	48.01
452.796	48.11
453.145	48.12
453.494	48.01
453.843	48.25
454.193	48.13
454.542	47.99
454.891	48.1
455.239	48.06
455.588	48
455.937	48.04
456.286	47.99
456.635	47.88
456.984	47.87
457.332	47.53
457.681	47.49
458.03	47.45
458.378	47.34
458.727	47.4
459.075	47.28
459.423	47.43
459.772	47.53
460.12	47.56
460.468	47.46
460.817	47.46
461.165	47.57
461.513	47.38
461.861	47.4
462.209	47.39
462.557	47.25
462.905	47.2
463.253	47.32
463.601	47.28
463.949	47.26
464.297	47.24
464.644	47.22
464.992	47.15
465.34	47.08
465.687	47.11
466.035	47.08
466.383	47.11
466.73	46.86
467.078	47.02
467.425	46.93
467.772	46.86
468.12	46.63
468.467	46.36
468.814	46.22
469.161	46.28
469.508	46.08
469.856	45.92
470.203	45.93
470.55	45.76
470.897	45.77
471.243	45.72
471.59	45.7
471.937	45.46
472.284	45.36
472.631	45.11
472.977	45.06
473.324	44.97
473.671	44.85
474.017	44.76
474.364	44.6
474.71	44.45
475.057	44.33
475.403	44.25
475.749	43.91
476.096	43.65
476.442	43.53
476.788	43.48
477.134	43.46
477.48	43.25
477.826	43.05
478.172	43.05
478.518	42.93
478.864	42.76
479.21	42.63
479.556	42.47
479.902	42.36
480.248	42.27
480.593	42.22
480.939	41.97
481.285	41.94
481.63	41.76
481.976	41.58
482.321	41.52
482.667	41.45
483.012	41.3
483.357	41.32
483.703	41.22
484.048	41.18
484.393	41.16
484.738	41.25
485.084	41.18
485.429	41.07
485.774	40.98
486.119	40.97
486.464	40.89
486.808	40.7
487.153	40.53
487.498	40.49
487.843	40.41
488.188	40.35
488.532	40.2
488.877	40.05
489.222	39.94
489.566	39.93
489.911	39.8
490.255	39.76
490.6	39.73
490.944	39.61
491.288	39.53
491.633	39.48
491.977	39.34
492.321	39.2
492.665	39.09
493.009	38.96
493.353	38.8
493.697	38.67
494.041	38.58
494.385	38.53
494.729	38.49
495.073	38.39
495.417	38.32
495.76	38.28
496.104	38.18
496.448	38.08
496.791	37.92
497.135	37.78
497.479	37.6
497.822	37.5
498.165	37.3
498.509	37.2
498.852	36.97
499.196	36.85
499.539	36.71
499.882	36.62
500.225	36.47
500.568	36.37
500.911	36.26
501.254	36.14
501.597	36.05
501.94	35.88
502.283	35.73
502.626	35.57
502.969	35.44
503.312	35.23
503.654	35.14
503.997	34.9
504.34	34.79
504.682	34.68
505.025	34.51
505.367	34.4
505.71	34.37
506.052	34.35
506.395	34.23
506.737	34.17
507.079	34.04
507.421	33.94
507.764	33.78
508.106	33.61
508.448	33.45
508.79	33.34
509.132	33.1
509.474	32.91
509.816	32.82
510.158	32.63
510.499	32.52
510.841	32.48
511.183	32.32
511.525	32.09
511.866	32.04
512.208	31.93
512.549	31.88
512.891	31.72
513.232	31.62
513.574	31.5
513.915	31.41
514.256	31.22
514.598	31.1
514.939	30.96
515.28	30.79
515.621	30.69
515.962	30.68
516.303	30.53
516.644	30.42
516.985	30.29
517.326	30.07
517.667	30.06
518.008	30.03
518.349	29.9
518.69	29.78
519.03	29.64
519.371	29.45
519.712	29.45
520.052	29.42
520.393	29.29
520.733	29.14
521.074	29.04
521.414	28.97
521.754	28.88
522.095	28.88
522.435	28.74
522.775	28.62
523.115	28.51
523.455	28.39
523.795	28.38
524.135	28.37
524.475	28.21
524.815	28.16
525.155	28.13
525.495	28.01
525.835	28.06
526.175	27.97
526.514	27.94
526.854	27.89
527.194	27.86
527.533	27.75
527.873	27.68
528.212	27.64
528.552	27.54
528.891	27.5
529.23	27.48
529.57	27.42
529.909	27.35
530.248	27.17
530.587	27.06
530.927	27.05
531.266	27.01
531.605	26.98
531.944	26.84
532.283	26.71
532.621	26.63
532.96	26.58
533.299	26.5
533.638	26.43
533.977	26.33
534.315	26.21
534.654	26.02
534.992	25.94
535.331	25.83
535.67	25.66
536.008	25.64
536.346	25.67
536.685	25.52
537.023	25.38
537.361	25.13
537.7	25.15
538.038	25.04
538.376	24.97
538.714	25
539.052	24.92
539.39	24.83
539.728	24.72
540.066	24.54
540.404	24.53
540.741	24.39
541.079	24.24
541.417	24.27
541.755	24.15
542.092	24.05
542.43	23.97
542.767	23.92
543.105	23.91
543.442	23.76
543.78	23.72
544.117	23.82
544.454	23.75
544.792	23.51
545.129	23.49
545.466	23.53
545.803	23.6
546.14	23.53
546.477	23.55
546.814	23.62
547.151	23.55
547.488	23.52
547.825	23.29
548.162	23.24
548.499	23.25
548.835	23.11
549.172	23.15
549.509	23.15
549.845	22.96
550.182	23
550.518	22.94
550.855	22.98
551.191	22.94
551.528	22.96
551.864	23.06
552.2	23.16
552.537	23.1
552.873	23.04
553.209	23
553.545	22.91
553.881	22.79
554.217	22.62
554.553	22.47
554.889	22.39
555.225	22.28
555.561	22.15
555.896	22.04
556.232	22.16
556.568	22.27
556.903	22.3
557.239	22.37
557.575	22.47
557.91	22.44
558.245	22.6
558.581	22.56
558.916	22.61
559.252	22.68
559.587	22.69
559.922	22.72
560.257	22.74
560.592	22.68
560.928	22.73
561.263	22.85
561.598	22.96
561.933	23.04
562.267	23.31
562.602	23.46
562.937	23.58
563.272	23.71
563.607	23.77
563.941	23.9
564.276	24.11
564.611	24.28
564.945	24.31
565.28	24.39
565.614	24.47
565.949	24.5
566.283	24.65
566.617	24.7
566.951	24.81
567.286	24.88
567.62	24.92
567.954	25.01
568.288	25.15
568.622	25.18
568.956	25.08
569.29	25.15
569.624	25.19
569.958	25.25
570.292	25.27
570.626	25.28
570.959	25.42
571.293	25.53
571.627	25.65
571.96	25.72
572.294	25.77
572.627	25.78
572.961	25.77
573.294	25.8
573.627	25.81
573.961	25.9
574.294	26
574.627	26.17
574.961	26.3
575.294	26.36
575.627	26.41
575.96	26.38
576.293	26.51
576.626	26.5
576.959	26.62
577.292	26.82
577.624	26.9
577.957	27.01
578.29	27.17
578.623	27.35
578.955	27.49
579.288	27.51
579.62	27.57
579.953	27.62
580.285	27.71
580.618	27.86
580.95	27.98
581.282	28.1
581.615	28.23
581.947	28.31
582.279	28.38
582.611	28.4
582.943	28.34
583.275	28.34
583.607	28.55
583.939	28.66
584.271	28.88
584.603	28.87
584.935	29
585.267	29.02
585.598	29.1
585.93	29.1
586.262	29.13
586.593	29.06
586.925	29.15
587.256	29.19
587.588	29.3
587.919	29.46
588.25	29.52
588.582	29.58
588.913	29.66
589.244	29.67
589.575	29.76
589.907	29.81
590.238	29.92
590.569	30.08
590.9	30.2
591.231	30.3
591.562	30.42
591.892	30.53
592.223	30.73
592.554	30.84
592.885	31.12
593.215	31.22
593.546	31.36
593.877	31.41
594.207	31.54
594.538	31.7
594.868	31.98
595.198	32
595.529	32.13
595.859	32.29
596.189	32.27
596.52	32.42
596.85	32.52
597.18	32.56
597.51	32.76
597.84	32.91
598.17	33.07
598.5	33.07
598.83	33.24
599.16	33.51
599.489	33.69
599.819	33.78
600.149	33.83
600.479	34
600.808	34.12
601.138	34.22
601.467	34.38
601.797	34.66
602.126	34.77
602.456	35.08
602.785	35.24
603.114	35.4
603.443	35.65
603.773	35.8
604.102	35.99
604.431	36.21
604.76	36.41
605.089	36.7
605.418	36.91
605.747	37.08
606.076	37.29
606.405	37.42
606.733	37.86
607.062	38.04
607.391	38.24
607.72	38.45
608.048	38.8
608.377	39.17
608.705	39.51
609.034	39.86
609.362	39.99
609.69	40.29
610.019	40.41
610.347	40.69
610.675	40.81
611.004	40.98
611.332	41.22
611.66	41.43
611.988	41.7
612.316	41.79
612.644	42.01
612.972	42.22
613.3	42.44
613.627	42.68
613.955	42.94
614.283	43.12
614.611	43.53
614.938	43.76
615.266	44.08
615.593	44.13
615.921	44.39
616.248	44.73
616.576	45.02
616.903	44.86
617.23	45.15
617.558	45.78
617.885	46.15
618.212	46.47
618.539	46.93
618.866	47.42
619.193	47.59
619.52	47.83
619.847	48.27
620.174	48.19
620.501	48.68
620.828	48.66
621.155	48.74
621.481	48.94
621.808	49.3
622.135	49.55
622.461	49.78
622.788	50
623.114	50.15
623.441	49.94
623.767	50.21
624.093	50.71
624.42	50.68
624.746	50.93
625.072	51.5
625.398	51.71
625.725	51.64
626.051	51.84
626.377	52.1
626.703	52.23
627.029	52.17
627.354	52.86
627.68	52.93
628.006	52.84
628.332	53.22
628.658	53.04
628.983	53.23
629.309	53.33
629.634	53.42
629.96	53.58
630.285	53.57
630.611	53.58
630.936	53.56
631.262	53.54
631.587	54.25
631.912	54.56
632.237	54.33
632.562	54.82
632.887	54.85
633.213	55.41
633.538	55.7
633.863	56.25
634.187	56.42
634.512	56.3
634.837	56.53
635.162	56.74
635.487	56.6
635.811	56.68
636.136	56.86
636.461	57.15
636.785	57.79
637.11	58.46
637.434	59.21
637.758	59.21
638.083	59.37
638.407	60.02
638.731	60.77
639.056	61.09
639.38	61.24
639.704	60.83
640.028	61.46
640.352	61.87
640.676	62.11
641	62.3
641.324	62.14
641.648	62.21
641.972	61.74
642.295	62.2
642.619	62.49
642.943	62.38
643.266	61.99
643.59	61.89
643.913	62.27
644.237	62.72
644.56	62.67
644.884	62.67
645.207	62.8
645.53	62.34
645.854	62.59
646.177	62.69
646.5	62.4
646.823	62.27
647.146	62.29
647.469	62.66
647.792	63.64
648.115	63.29
648.438	63.4
648.761	65.09
649.084	65.98
649.406	66.09
649.729	65.54
650.052	65.52
650.374	65.54
650.697	65.69
651.019	65.88
651.342	66.3
651.664	66.26
651.987	66.23
652.309	66.09
652.631	66.04
652.953	65.98
653.276	65.88
653.598	66.05
653.92	66.21
654.242	66.23
654.564	66.16
654.886	65.97
655.208	65.89
655.53	65.67
655.851	65.44
656.173	65.45
656.495	65.57
656.816	64.82
657.138	64.16
657.46	63.74
657.781	64.02
658.103	64.06
658.424	63.35
658.746	62.8
659.067	62.47
659.388	62
659.709	62.26
660.031	61.91
660.352	62.15
660.673	62.28
660.994	62.08
