Data from T1_Reflection__21__13-37-17-043.txt Node

Date: Thu Jun 03 13:37:17 CEST 2021
User: mabdelazizm
Spectrometer: FLMS18565
Trigger mode: 0
Integration Time (sec): 2.000000E0
Scans to average: 1
Electric dark correction enabled: true
Nonlinearity correction enabled: false
Boxcar width: 12
XAxis mode: Wavelengths
Number of Pixels in Spectrum: 2048
>>>>>Begin Spectral Data<<<<<
179.071	39.29
179.452	59.27
179.833	48.77
180.214	56.07
180.595	63.31
180.977	68.32
181.358	80.09
181.739	62.21
182.12	43.2
182.501	3.28
182.882	22.05
183.262	37.19
183.643	25.57
184.024	7.17
184.405	17.51
184.786	11.02
185.166	9.87
185.547	13.87
185.927	5.19
186.308	7.77
186.689	24.88
187.069	24.07
187.449	24.53
187.83	18.59
188.21	16.73
188.59	14.64
188.971	10.72
189.351	11.17
189.731	6.57
190.111	7.45
190.491	6.12
190.871	5.86
191.251	12.54
191.631	12.39
192.011	14.87
192.391	13.75
192.771	15.03
193.151	14.79
193.531	16.06
193.91	15.89
194.29	16.53
194.67	15.02
195.049	12.77
195.429	14.82
195.808	10.78
196.188	7.74
196.567	6.8
196.946	8.17
197.326	10.31
197.705	11.99
198.084	13.44
198.464	13.32
198.843	15.07
199.222	14.27
199.601	14.33
199.98	13.71
200.359	15.73
200.738	12.93
201.117	14.13
201.496	13.38
201.875	12.43
202.254	10.5
202.632	10.79
203.011	9.9
203.39	10.68
203.768	12.64
204.147	12.51
204.525	13
204.904	13.74
205.282	16.34
205.661	15.67
206.039	17.97
206.418	17.56
206.796	18.05
207.174	17.65
207.552	16.93
207.931	15.99
208.309	15.35
208.687	16.06
209.065	16.07
209.443	17.15
209.821	15.68
210.199	16.99
210.577	16.81
210.954	17.84
211.332	18.61
211.71	18.41
212.088	17.93
212.465	18.45
212.843	16.71
213.221	15.25
213.598	15.71
213.976	15.64
214.353	14.24
214.731	14.42
215.108	14.4
215.485	12.41
215.863	11.54
216.24	11.01
216.617	10.79
216.994	10.58
217.371	11.5
217.749	10.56
218.126	11
218.503	10.24
218.88	9.63
219.256	9.86
219.633	8.49
220.01	7.5
220.387	7.95
220.764	7.54
221.14	7.44
221.517	7.32
221.894	6.93
222.27	7.01
222.647	6.42
223.023	5.85
223.4	5.15
223.776	5.19
224.153	4.57
224.529	4.28
224.905	4.8
225.282	4.71
225.658	4.36
226.034	3.95
226.41	4.13
226.786	3.96
227.162	3.68
227.538	3.38
227.914	3.43
228.29	3.32
228.666	2.9
229.042	2.76
229.418	2.87
229.793	2.45
230.169	2.35
230.545	2.09
230.92	2.23
231.296	2.21
231.672	2.22
232.047	2.31
232.422	2.37
232.798	2.4
233.173	2.29
233.549	1.97
233.924	1.93
234.299	1.67
234.674	1.54
235.05	1.36
235.425	1.49
235.8	1.38
236.175	1.27
236.55	1.32
236.925	1.2
237.3	1.12
237.675	1.07
238.049	1.12
238.424	1.13
238.799	1.13
239.174	1.09
239.548	1.01
239.923	1.08
240.297	0.95
240.672	0.98
241.046	0.97
241.421	0.95
241.795	0.96
242.17	1
242.544	1
242.918	1.17
243.293	1.2
243.667	1.19
244.041	1.17
244.415	1.13
244.789	0.96
245.163	0.93
245.537	0.96
245.911	0.88
246.285	0.86
246.659	0.85
247.033	0.81
247.406	0.8
247.78	0.83
248.154	0.83
248.528	0.81
248.901	0.82
249.275	0.8
249.648	0.8
250.022	0.8
250.395	0.71
250.769	0.65
251.142	0.62
251.515	0.53
251.888	0.53
252.262	0.4
252.635	0.28
253.008	0.25
253.381	0.3
253.754	0.34
254.127	0.4
254.5	0.36
254.873	0.37
255.246	0.4
255.619	0.48
255.992	0.46
256.364	0.52
256.737	0.46
257.11	0.41
257.483	0.39
257.855	0.44
258.228	0.43
258.6	0.41
258.973	0.4
259.345	0.33
259.718	0.38
260.09	0.4
260.462	0.43
260.834	0.45
261.207	0.4
261.579	0.46
261.951	0.51
262.323	0.51
262.695	0.5
263.067	0.52
263.439	0.55
263.811	0.55
264.183	0.51
264.555	0.54
264.927	0.52
265.298	0.51
265.67	0.45
266.042	0.47
266.413	0.47
266.785	0.47
267.156	0.49
267.528	0.54
267.899	0.57
268.271	0.54
268.642	0.56
269.013	0.5
269.385	0.5
269.756	0.43
270.127	0.4
270.498	0.39
270.87	0.32
271.241	0.31
271.612	0.36
271.983	0.38
272.354	0.39
272.724	0.38
273.095	0.34
273.466	0.37
273.837	0.3
274.208	0.29
274.578	0.3
274.949	0.35
275.32	0.35
275.69	0.33
276.061	0.26
276.431	0.19
276.802	0.16
277.172	0.14
277.542	0.18
277.913	0.2
278.283	0.2
278.653	0.18
279.023	0.25
279.394	0.24
279.764	0.26
280.134	0.28
280.504	0.32
280.874	0.25
281.244	0.18
281.614	0.16
281.983	0.16
282.353	0.17
282.723	0.15
283.093	0.19
283.462	0.17
283.832	0.19
284.202	0.16
284.571	0.16
284.941	0.21
285.31	0.23
285.68	0.25
286.049	0.29
286.418	0.24
286.788	0.27
287.157	0.2
287.526	0.27
287.895	0.28
288.264	0.28
288.633	0.29
289.002	0.28
289.371	0.31
289.74	0.3
290.109	0.34
290.478	0.35
290.847	0.35
291.216	0.35
291.585	0.33
291.953	0.28
292.322	0.25
292.691	0.29
293.059	0.21
293.428	0.2
293.796	0.22
294.165	0.19
294.533	0.17
294.901	0.19
295.27	0.16
295.638	0.19
296.006	0.09
296.374	0.15
296.743	0.12
297.111	0.09
297.479	0.04
297.847	0.06
298.215	0.02
298.583	0.06
298.95	0.07
299.318	0.1
299.686	0.12
300.054	0.16
300.422	0.14
300.789	0.17
301.157	0.22
301.525	0.25
301.892	0.21
302.26	0.27
302.627	0.3
302.994	0.25
303.362	0.28
303.729	0.3
304.097	0.26
304.464	0.25
304.831	0.29
305.198	0.33
305.565	0.29
305.932	0.3
306.299	0.32
306.666	0.34
307.033	0.38
307.4	0.44
307.767	0.34
308.134	0.28
308.501	0.24
308.867	0.23
309.234	0.16
309.601	0.14
309.967	0.17
310.334	0.15
310.701	0.11
311.067	0.12
311.433	0.1
311.8	0.06
312.166	0.09
312.533	0.08
312.899	0.1
313.265	0.11
313.631	0.09
313.997	0.03
314.363	-0.02
314.729	-0.03
315.096	-0.07
315.461	-0.06
315.827	-0.08
316.193	-0.08
316.559	-0.12
316.925	-0.09
317.291	-0.07
317.656	-0.08
318.022	-0.08
318.388	-0.01
318.753	-0.05
319.119	-0.12
319.484	-0.09
319.85	-0.07
320.215	-0.07
320.581	-0.11
320.946	-0.12
321.311	-0.14
321.676	-0.12
322.042	-0.14
322.407	-0.13
322.772	-0.21
323.137	-0.14
323.502	-0.11
323.867	-0.12
324.232	-0.1
324.597	-0.12
324.962	-0.09
325.327	-0.17
325.691	-0.08
326.056	-0.08
326.421	-0.08
326.785	-0.1
327.15	-0.1
327.514	-0.2
327.879	-0.14
328.243	-0.11
328.608	-0.1
328.972	-0.09
329.337	-0.05
329.701	0.02
330.065	0.05
330.429	0.06
330.794	-0
331.158	0
331.522	-0.01
331.886	0.08
332.25	0.02
332.614	0.09
332.978	0.12
333.342	0.06
333.705	0.08
334.069	0.02
334.433	0.09
334.797	-0.04
335.16	-0.07
335.524	-0.07
335.887	-0.06
336.251	-0.03
336.614	0.01
336.978	-0.04
337.341	-0.02
337.705	-0.08
338.068	-0.11
338.431	-0.13
338.794	-0.15
339.158	-0.19
339.521	-0.21
339.884	-0.21
340.247	-0.18
340.61	-0.24
340.973	-0.26
341.336	-0.23
341.699	-0.32
342.062	-0.34
342.424	-0.36
342.787	-0.39
343.15	-0.37
343.512	-0.44
343.875	-0.36
344.238	-0.27
344.6	-0.26
344.963	-0.27
345.325	-0.27
345.688	-0.3
346.05	-0.29
346.412	-0.3
346.775	-0.33
347.137	-0.36
347.499	-0.39
347.861	-0.4
348.223	-0.37
348.585	-0.32
348.947	-0.31
349.309	-0.37
349.671	-0.31
350.033	-0.28
350.395	-0.34
350.757	-0.28
351.118	-0.22
351.48	-0.11
351.842	-0.09
352.203	-0.05
352.565	-0.02
352.927	0.01
353.288	-0.1
353.65	-0.14
354.011	-0.16
354.372	-0.18
354.734	-0.16
355.095	-0.13
355.456	-0.11
355.817	-0.07
356.179	-0.05
356.54	-0.02
356.901	-0.02
357.262	-0.06
357.623	-0.01
357.984	0
358.345	0.02
358.705	0.01
359.066	-0.01
359.427	0.03
359.788	0.04
360.148	0.01
360.509	-0.1
360.87	-0.15
361.23	-0.22
361.591	-0.23
361.951	-0.27
362.312	-0.24
362.672	-0.19
363.032	-0.11
363.393	-0.17
363.753	-0.14
364.113	-0.19
364.473	-0.18
364.833	-0.21
365.193	-0.21
365.553	-0.19
365.913	-0.24
366.273	-0.24
366.633	-0.31
366.993	-0.39
367.353	-0.37
367.713	-0.4
368.072	-0.39
368.432	-0.37
368.792	-0.43
369.151	-0.42
369.511	-0.35
369.87	-0.3
370.23	-0.22
370.589	-0.19
370.949	-0.18
371.308	-0.08
371.667	-0.07
372.027	-0.14
372.386	-0.12
372.745	-0.12
373.104	-0.07
373.463	-0.1
373.822	-0.05
374.181	-0.07
374.54	-0.06
374.899	0.04
375.258	0.04
375.617	0.02
375.975	0.13
376.334	0.16
376.693	0.27
377.052	0.31
377.41	0.28
377.769	0.33
378.127	0.27
378.486	0.25
378.844	0.27
379.202	0.26
379.561	0.25
379.919	0.22
380.277	0.19
380.636	0.2
380.994	0.21
381.352	0.25
381.71	0.33
382.068	0.37
382.426	0.37
382.784	0.36
383.142	0.4
383.5	0.39
383.857	0.42
384.215	0.53
384.573	0.55
384.931	0.53
385.288	0.5
385.646	0.48
386.003	0.47
386.361	0.52
386.718	0.55
387.076	0.64
387.433	0.74
387.791	0.78
388.148	0.89
388.505	0.93
388.862	0.98
389.22	1
389.577	1.08
389.934	1.17
390.291	1.24
390.648	1.32
391.005	1.44
391.362	1.57
391.718	1.72
392.075	1.8
392.432	1.87
392.789	1.96
393.145	2.04
393.502	2.19
393.859	2.34
394.215	2.45
394.572	2.6
394.928	2.73
395.285	2.85
395.641	3.03
395.997	3.25
396.354	3.33
396.71	3.56
397.066	3.72
397.422	3.9
397.778	4.15
398.134	4.35
398.491	4.59
398.846	4.89
399.202	5.13
399.558	5.32
399.914	5.54
400.27	5.84
400.626	6.08
400.981	6.37
401.337	6.71
401.693	7.06
402.048	7.37
402.404	7.69
402.759	8.02
403.115	8.48
403.47	8.81
403.826	9.23
404.181	9.65
404.536	9.97
404.892	10.28
405.247	10.73
405.602	11.17
405.957	11.62
406.312	12.1
406.667	12.61
407.022	13.14
407.377	13.6
407.732	13.99
408.087	14.53
408.442	15.09
408.796	15.62
409.151	16.08
409.506	16.59
409.86	17.29
410.215	17.85
410.57	18.34
410.924	18.91
411.279	19.52
411.633	20.08
411.987	20.66
412.342	21.34
412.696	21.9
413.05	22.51
413.404	23.22
413.758	23.93
414.113	24.64
414.467	25.17
414.821	25.7
415.175	26.39
415.529	26.98
415.882	27.71
416.236	28.38
416.59	29.15
416.944	29.82
417.298	30.55
417.651	31.19
418.005	31.89
418.358	32.57
418.712	33.05
419.065	33.77
419.419	34.44
419.772	35.08
420.126	35.76
420.479	36.43
420.832	37.04
421.185	37.7
421.539	38.42
421.892	39.08
422.245	39.6
422.598	40.11
422.951	40.64
423.304	41.21
423.657	41.82
424.01	42.47
424.363	43.15
424.715	43.75
425.068	44.31
425.421	44.87
425.773	45.42
426.126	45.95
426.479	46.5
426.831	47.11
427.184	47.64
427.536	48.13
427.889	48.57
428.241	48.99
428.593	49.4
428.945	49.77
429.298	50.19
429.65	50.68
430.002	51.05
430.354	51.48
430.706	51.92
431.058	52.35
431.41	53.05
431.762	53.64
432.114	54.14
432.466	54.49
432.817	54.85
433.169	55.27
433.521	55.65
433.872	56.05
434.224	56.37
434.576	56.77
434.927	57.11
435.279	57.48
435.63	57.8
435.981	57.96
436.333	58.25
436.684	58.39
437.035	58.7
437.387	59.01
437.738	59.27
438.089	59.46
438.44	59.61
438.791	59.84
439.142	59.92
439.493	60.21
439.844	60.49
440.195	60.39
440.545	60.28
440.896	60.44
441.247	60.69
441.598	60.87
441.948	61.1
442.299	61.19
442.649	61.19
443	61.31
443.35	61.35
443.701	61.32
444.051	61.27
444.401	61.22
444.752	61.45
445.102	61.51
445.452	61.64
445.802	61.91
446.152	61.99
446.502	62.18
446.852	62.37
447.202	62.34
447.552	62.41
447.902	62.59
448.252	62.51
448.602	62.68
448.952	62.74
449.301	62.9
449.651	62.97
450.001	63.01
450.35	62.94
450.7	62.78
451.049	62.86
451.399	62.96
451.748	63.05
452.097	62.95
452.447	63.01
452.796	63.04
453.145	63.04
453.494	62.97
453.843	63
454.193	63.05
454.542	62.87
454.891	62.92
455.239	62.7
455.588	62.5
455.937	62.58
456.286	62.56
456.635	62.44
456.984	62.44
457.332	62.34
457.681	62.47
458.03	62.32
458.378	62.17
458.727	62.16
459.075	62.24
459.423	62.35
459.772	62.24
460.12	62.2
460.468	62.06
460.817	62.2
461.165	62.17
461.513	62.11
461.861	62.18
462.209	62.09
462.557	62.12
462.905	61.99
463.253	61.92
463.601	61.88
463.949	61.83
464.297	61.82
464.644	61.85
464.992	61.76
465.34	61.71
465.687	61.67
466.035	61.48
466.383	61.36
466.73	61.29
467.078	61.27
467.425	61.14
467.772	61.07
468.12	60.8
468.467	60.63
468.814	60.58
469.161	60.45
469.508	60.31
469.856	60.2
470.203	60.03
470.55	59.9
470.897	59.9
471.243	59.77
471.59	59.73
471.937	59.68
472.284	59.47
472.631	59.29
472.977	59.32
473.324	59.09
473.671	59.06
474.017	58.85
474.364	58.67
474.71	58.5
475.057	58.39
475.403	58.24
475.749	58.07
476.096	57.79
476.442	57.42
476.788	57.37
477.134	57.24
477.48	57.06
477.826	56.86
478.172	56.75
478.518	56.72
478.864	56.7
479.21	56.54
479.556	56.4
479.902	56.24
480.248	56.15
480.593	55.88
480.939	55.68
481.285	55.66
481.63	55.42
481.976	55.32
482.321	55.09
482.667	55.05
483.012	54.93
483.357	54.8
483.703	54.64
484.048	54.58
484.393	54.51
484.738	54.58
485.084	54.53
485.429	54.36
485.774	54.28
486.119	54.24
486.464	54.13
486.808	53.92
487.153	53.62
487.498	53.37
487.843	53.2
488.188	53.06
488.532	52.86
488.877	52.61
489.222	52.55
489.566	52.49
489.911	52.28
490.255	52.16
490.6	52.02
490.944	51.86
491.288	51.6
491.633	51.43
491.977	51.33
492.321	51.15
492.665	50.93
493.009	50.72
493.353	50.5
493.697	50.48
494.041	50.28
494.385	50.16
494.729	49.97
495.073	49.89
495.417	49.84
495.76	49.85
496.104	49.73
496.448	49.54
496.791	49.33
497.135	49.2
497.479	48.91
497.822	48.69
498.165	48.51
498.509	48.4
498.852	48.24
499.196	48.06
499.539	47.92
499.882	47.78
500.225	47.62
500.568	47.5
500.911	47.29
501.254	47.22
501.597	47.15
501.94	46.98
502.283	46.83
502.626	46.75
502.969	46.54
503.312	46.4
503.654	46.24
503.997	45.91
504.34	45.62
504.682	45.57
505.025	45.45
505.367	45.25
505.71	45.17
506.052	45.18
506.395	45.11
506.737	44.99
507.079	44.78
507.421	44.59
507.764	44.39
508.106	44.22
508.448	44.08
508.79	44
509.132	43.73
509.474	43.67
509.816	43.42
510.158	43.29
510.499	43.14
510.841	42.89
511.183	42.83
511.525	42.74
511.866	42.66
512.208	42.48
512.549	42.5
512.891	42.39
513.232	42.26
513.574	42.27
513.915	42.29
514.256	42.1
514.598	41.87
514.939	41.74
515.28	41.52
515.621	41.41
515.962	41.3
516.303	41.23
516.644	41.21
516.985	41.23
517.326	40.98
517.667	40.94
518.008	40.92
518.349	40.84
518.69	40.64
519.03	40.48
519.371	40.4
519.712	40.26
520.052	40.08
520.393	39.83
520.733	39.78
521.074	39.55
521.414	39.5
521.754	39.38
522.095	39.16
522.435	38.88
522.775	38.85
523.115	38.87
523.455	38.72
523.795	38.75
524.135	38.6
524.475	38.49
524.815	38.33
525.155	38.1
525.495	37.95
525.835	37.96
526.175	37.67
526.514	37.38
526.854	37.33
527.194	37.17
527.533	37.14
527.873	37.02
528.212	36.86
528.552	36.85
528.891	36.84
529.23	36.79
529.57	36.7
529.909	36.53
530.248	36.37
530.587	36.37
530.927	36.32
531.266	36.16
531.605	36.09
531.944	35.98
532.283	35.81
532.621	35.79
532.96	35.7
533.299	35.58
533.638	35.5
533.977	35.34
534.315	35.23
534.654	35.21
534.992	35.24
535.331	35.16
535.67	35.16
536.008	35.04
536.346	35.03
536.685	35.01
537.023	34.78
537.361	34.64
537.7	34.55
538.038	34.53
538.376	34.42
538.714	34.33
539.052	34.1
539.39	34.13
539.728	34.09
540.066	33.98
540.404	34
540.741	33.89
541.079	33.75
541.417	33.74
541.755	33.76
542.092	33.71
542.43	33.76
542.767	33.73
543.105	33.73
543.442	33.64
543.78	33.62
544.117	33.59
544.454	33.62
544.792	33.59
545.129	33.5
545.466	33.57
545.803	33.71
546.14	33.66
546.477	33.71
546.814	33.79
547.151	33.74
547.488	33.74
547.825	33.55
548.162	33.55
548.499	33.5
548.835	33.44
549.172	33.51
549.509	33.62
549.845	33.56
550.182	33.52
550.518	33.5
550.855	33.41
551.191	33.48
551.528	33.48
551.864	33.58
552.2	33.6
552.537	33.59
552.873	33.51
553.209	33.38
553.545	33.31
553.881	33.31
554.217	33.08
554.553	32.98
554.889	32.89
555.225	32.92
555.561	32.91
555.896	33.02
556.232	33.12
556.568	33.12
556.903	33.26
557.239	33.23
557.575	33.26
557.91	33.21
558.245	33.28
558.581	33.3
558.916	33.41
559.252	33.5
559.587	33.46
559.922	33.5
560.257	33.45
560.592	33.48
560.928	33.47
561.263	33.58
561.598	33.64
561.933	33.74
562.267	33.94
562.602	34.2
562.937	34.25
563.272	34.37
563.607	34.32
563.941	34.54
564.276	34.57
564.611	34.67
564.945	34.69
565.28	34.65
565.614	34.75
565.949	34.84
566.283	34.85
566.617	35.1
566.951	35.08
567.286	35.1
567.62	35.08
567.954	35.11
568.288	35.3
568.622	35.32
568.956	35.29
569.29	35.35
569.624	35.3
569.958	35.42
570.292	35.52
570.626	35.49
570.959	35.58
571.293	35.81
571.627	35.94
571.96	36.16
572.294	36.1
572.627	36.15
572.961	36.12
573.294	36.11
573.627	36.19
573.961	36.3
574.294	36.23
574.627	36.36
574.961	36.35
575.294	36.52
575.627	36.5
575.96	36.62
576.293	36.74
576.626	36.81
576.959	36.99
577.292	37.06
577.624	37.18
577.957	37.4
578.29	37.45
578.623	37.56
578.955	37.74
579.288	37.78
579.62	37.83
579.953	37.95
580.285	37.97
580.618	38.22
580.95	38.38
581.282	38.57
581.615	38.75
581.947	38.77
582.279	38.84
582.611	39.03
582.943	39.09
583.275	39.21
583.607	39.42
583.939	39.6
584.271	39.73
584.603	39.88
584.935	39.92
585.267	39.96
585.598	40.14
585.93	40.25
586.262	40.11
586.593	40.22
586.925	40.28
587.256	40.29
587.588	40.37
587.919	40.37
588.25	40.39
588.582	40.49
588.913	40.48
589.244	40.55
589.575	40.77
589.907	40.88
590.238	41.14
590.569	41.3
590.9	41.52
591.231	41.7
591.562	41.8
591.892	41.8
592.223	42.17
592.554	42.36
592.885	42.6
593.215	42.8
593.546	42.95
593.877	43.1
594.207	43.13
594.538	43.42
594.868	43.62
595.198	43.9
595.529	44.2
595.859	44.36
596.189	44.61
596.52	44.76
596.85	44.83
597.18	45.05
597.51	45.22
597.84	45.3
598.17	45.52
598.5	45.66
598.83	45.83
599.16	45.96
599.489	46.26
599.819	46.48
600.149	46.76
600.479	46.91
600.808	47.13
601.138	47.27
601.467	47.44
601.797	47.65
602.126	47.9
602.456	48.26
602.785	48.62
603.114	48.99
603.443	49.1
603.773	49.2
604.102	49.51
604.431	49.66
604.76	49.81
605.089	50.27
605.418	50.51
605.747	50.8
606.076	50.88
606.405	51.07
606.733	51.3
607.062	51.62
607.391	51.91
607.72	52.02
608.048	52.31
608.377	52.66
608.705	53.01
609.034	53.24
609.362	53.48
609.69	53.86
610.019	54.1
610.347	54.42
610.675	54.64
611.004	54.7
611.332	54.71
611.66	55
611.988	55.32
612.316	55.44
612.644	55.88
612.972	56.12
613.3	56.04
613.627	56.28
613.955	56.34
614.283	56.72
614.611	57.04
614.938	57.13
615.266	57.39
615.593	57.59
615.921	57.83
616.248	58.21
616.576	58.4
616.903	58.49
617.23	58.64
617.558	59.14
617.885	59.55
618.212	59.7
618.539	59.94
618.866	60.37
619.193	60.74
619.52	61.19
619.847	61.6
620.174	61.45
620.501	61.97
620.828	62
621.155	62.22
621.481	62.81
621.808	62.88
622.135	63.1
622.461	63.38
622.788	63.44
623.114	64.09
623.441	63.92
623.767	64.08
624.093	64.45
624.42	64.67
624.746	64.83
625.072	65.26
625.398	65.75
625.725	65.91
626.051	66.07
626.377	66.67
626.703	66.91
627.029	67.11
627.354	67.48
627.68	67.57
628.006	67.5
628.332	68.23
628.658	68.3
628.983	68.06
629.309	68.51
629.634	68.2
629.96	68.59
630.285	68.77
630.611	68.64
630.936	68.71
631.262	68.55
631.587	69.16
631.912	69.73
632.237	69.96
632.562	70.16
632.887	70.64
633.213	71.39
633.538	71.82
633.863	71.78
634.187	71.9
634.512	72.1
634.837	71.85
635.162	71.71
635.487	71.97
635.811	72.2
636.136	72.29
636.461	72.62
636.785	72.9
637.11	73.79
637.434	74.14
637.758	74.6
638.083	74.67
638.407	75.45
638.731	76.34
639.056	76.74
639.38	76.76
639.704	76.53
640.028	76.76
640.352	77.55
640.676	78.24
641	77.94
641.324	77.91
641.648	77.33
641.972	77.09
642.295	77.35
642.619	77.26
642.943	77.07
643.266	76.91
643.59	76.55
643.913	76.75
644.237	77.01
644.56	76.6
644.884	76.15
645.207	76.38
645.53	76.28
645.854	76.68
646.177	76.82
646.5	76.29
646.823	76.08
647.146	76.47
647.469	76.87
647.792	77.55
648.115	77.25
648.438	76.89
648.761	78.48
649.084	79.84
649.406	79.45
649.729	78.97
650.052	78.59
650.374	78.38
650.697	78.56
651.019	78.85
651.342	79.08
651.664	79
651.987	78.98
652.309	78.91
652.631	78.94
652.953	79.27
653.276	79.19
653.598	79.28
653.92	79.35
654.242	79.29
654.564	79.33
654.886	79.32
655.208	79.15
655.53	79.08
655.851	78.87
