Data from T1_Reflection__77__14-17-02-966.txt Node

Date: Thu Jun 03 14:17:02 CEST 2021
User: mabdelazizm
Spectrometer: FLMS18565
Trigger mode: 0
Integration Time (sec): 2.000000E0
Scans to average: 1
Electric dark correction enabled: true
Nonlinearity correction enabled: false
Boxcar width: 12
XAxis mode: Wavelengths
Number of Pixels in Spectrum: 2048
>>>>>Begin Spectral Data<<<<<
179.071	26.54
179.452	70.65
179.833	70.42
180.214	84.97
180.595	84.11
180.977	96.03
181.358	96.78
181.739	88.05
182.12	71.14
182.501	54.54
182.882	77.82
183.262	66.83
183.643	38.11
184.024	27.58
184.405	26.3
184.786	13.03
185.166	25.02
185.547	18.78
185.927	17.64
186.308	19.61
186.689	25.41
187.069	25.32
187.449	27.87
187.83	25.5
188.21	22.75
188.59	27.77
188.971	22.55
189.351	24.95
189.731	16.14
190.111	18.57
190.491	13.18
190.871	14.27
191.251	16.34
191.631	19.39
192.011	21.2
192.391	19.42
192.771	23.99
193.151	25.03
193.531	22.79
193.91	21.84
194.29	20.15
194.67	18.03
195.049	15.41
195.429	17.97
195.808	14.67
196.188	13.95
196.567	12.74
196.946	11.05
197.326	11.33
197.705	12.24
198.084	13.29
198.464	12.69
198.843	11.61
199.222	13.3
199.601	13.27
199.98	13.21
200.359	13.35
200.738	12.75
201.117	11.83
201.496	9.16
201.875	10.52
202.254	7.96
202.632	7.77
203.011	8.86
203.39	9.43
203.768	12.44
204.147	12.87
204.525	13.39
204.904	12.72
205.282	15.12
205.661	13.6
206.039	15.1
206.418	16.6
206.796	18.26
207.174	17.08
207.552	15.7
207.931	13.33
208.309	12.5
208.687	11.92
209.065	12.42
209.443	13.07
209.821	12.87
210.199	13.48
210.577	12.9
210.954	14.3
211.332	13.68
211.71	13.09
212.088	13.46
212.465	13.67
212.843	13
213.221	12.38
213.598	12.16
213.976	12.89
214.353	11.38
214.731	11.54
215.108	12.35
215.485	10.64
215.863	9.24
216.24	8.59
216.617	9.59
216.994	9.1
217.371	10.21
217.749	8.96
218.126	9.4
218.503	8.7
218.88	9.65
219.256	10.02
219.633	8.74
220.01	8.21
220.387	9.23
220.764	8.87
221.14	8.55
221.517	8.12
221.894	7.71
222.27	8
222.647	6.71
223.023	6.11
223.4	5.56
223.776	5.45
224.153	5.07
224.529	4.74
224.905	4.97
225.282	5.25
225.658	5.12
226.034	4.73
226.41	5
226.786	4.99
227.162	5.66
227.538	5.27
227.914	4.97
228.29	4.58
228.666	4
229.042	4.32
229.418	4.32
229.793	3.84
230.169	3.79
230.545	3.73
230.92	3.61
231.296	3.58
231.672	3.41
232.047	3.64
232.422	3.95
232.798	3.9
233.173	3.97
233.549	3.66
233.924	3.75
234.299	3.66
234.674	3.59
235.05	3.42
235.425	3.41
235.8	3.37
236.175	3.33
236.55	3.26
236.925	3.22
237.3	3.29
237.675	3.26
238.049	3.37
238.424	3.31
238.799	3.36
239.174	3.42
239.548	3.4
239.923	3.38
240.297	3.34
240.672	3.39
241.046	3.36
241.421	3.44
241.795	3.31
242.17	3.34
242.544	3.27
242.918	3.41
243.293	3.37
243.667	3.44
244.041	3.41
244.415	3.44
244.789	3.37
245.163	3.36
245.537	3.37
245.911	3.27
246.285	3.26
246.659	3.21
247.033	3.17
247.406	3.15
247.78	3.13
248.154	3.11
248.528	3.1
248.901	3.08
249.275	3.09
249.648	3.08
250.022	3.07
250.395	3.04
250.769	3.04
251.142	3.09
251.515	3.05
251.888	3.11
252.262	3.05
252.635	3
253.008	2.92
253.381	2.98
253.754	2.98
254.127	3.06
254.5	3.01
254.873	3
255.246	3.06
255.619	3.13
255.992	3.14
256.364	3.16
256.737	3.16
257.11	3.15
257.483	3.18
257.855	3.16
258.228	3.19
258.6	3.15
258.973	3.18
259.345	3.16
259.718	3.15
260.09	3.07
260.462	3.07
260.834	3.06
261.207	2.98
261.579	3.03
261.951	3.05
262.323	3.07
262.695	3.02
263.067	3.03
263.439	3.02
263.811	3.01
264.183	3
264.555	2.96
264.927	2.9
265.298	2.9
265.67	2.89
266.042	2.84
266.413	2.84
266.785	2.8
267.156	2.84
267.528	2.88
267.899	2.9
268.271	2.89
268.642	2.86
269.013	2.89
269.385	2.91
269.756	2.85
270.127	2.85
270.498	2.83
270.87	2.76
271.241	2.76
271.612	2.75
271.983	2.75
272.354	2.73
272.724	2.7
273.095	2.73
273.466	2.67
273.837	2.64
274.208	2.66
274.578	2.64
274.949	2.63
275.32	2.64
275.69	2.63
276.061	2.57
276.431	2.52
276.802	2.48
277.172	2.5
277.542	2.5
277.913	2.53
278.283	2.44
278.653	2.4
279.023	2.44
279.394	2.43
279.764	2.45
280.134	2.42
280.504	2.4
280.874	2.38
281.244	2.34
281.614	2.33
281.983	2.35
282.353	2.32
282.723	2.33
283.093	2.32
283.462	2.27
283.832	2.29
284.202	2.33
284.571	2.31
284.941	2.32
285.31	2.32
285.68	2.31
286.049	2.28
286.418	2.22
286.788	2.25
287.157	2.18
287.526	2.22
287.895	2.21
288.264	2.19
288.633	2.14
289.002	2.11
289.371	2.17
289.74	2.2
290.109	2.24
290.478	2.22
290.847	2.2
291.216	2.15
291.585	2.14
291.953	2.13
292.322	2.14
292.691	2.17
293.059	2.11
293.428	2.06
293.796	2.04
294.165	1.98
294.533	1.97
294.901	1.98
295.27	2.02
295.638	2.02
296.006	1.89
296.374	1.98
296.743	1.95
297.111	1.96
297.479	1.91
297.847	1.95
298.215	1.98
298.583	1.97
298.95	1.94
299.318	1.94
299.686	1.97
300.054	1.99
300.422	1.99
300.789	1.99
301.157	2
301.525	2.01
301.892	2.03
302.26	2.09
302.627	2.11
302.994	2.16
303.362	2.16
303.729	2.21
304.097	2.19
304.464	2.1
304.831	2.13
305.198	2.12
305.565	2.1
305.932	2.11
306.299	2.08
306.666	2.11
307.033	2.11
307.4	2.17
307.767	2.13
308.134	2.1
308.501	2.04
308.867	2.03
309.234	2.01
309.601	2.01
309.967	2.08
310.334	2.12
310.701	2.06
311.067	2.03
311.433	1.98
311.8	1.94
312.166	1.92
312.533	1.95
312.899	1.96
313.265	1.94
313.631	1.97
313.997	1.92
314.363	1.95
314.729	2
315.096	1.98
315.461	2.02
315.827	2.04
316.193	2.06
316.559	1.97
316.925	1.97
317.291	1.97
317.656	1.99
318.022	2.01
318.388	2.01
318.753	1.97
319.119	1.87
319.484	1.84
319.85	1.82
320.215	1.84
320.581	1.81
320.946	1.8
321.311	1.75
321.676	1.76
322.042	1.68
322.407	1.7
322.772	1.69
323.137	1.73
323.502	1.78
323.867	1.71
324.232	1.76
324.597	1.77
324.962	1.69
325.327	1.63
325.691	1.69
326.056	1.71
326.421	1.76
326.785	1.72
327.15	1.72
327.514	1.66
327.879	1.72
328.243	1.76
328.608	1.76
328.972	1.8
329.337	1.78
329.701	1.8
330.065	1.84
330.429	1.86
330.794	1.8
331.158	1.82
331.522	1.77
331.886	1.8
332.25	1.74
332.614	1.69
332.978	1.65
333.342	1.61
333.705	1.6
334.069	1.62
334.433	1.66
334.797	1.63
335.16	1.62
335.524	1.59
335.887	1.57
336.251	1.47
336.614	1.51
336.978	1.46
337.341	1.45
337.705	1.43
338.068	1.49
338.431	1.51
338.794	1.54
339.158	1.52
339.521	1.52
339.884	1.55
340.247	1.59
340.61	1.59
340.973	1.57
341.336	1.6
341.699	1.61
342.062	1.6
342.424	1.53
342.787	1.52
343.15	1.53
343.512	1.5
343.875	1.47
344.238	1.47
344.6	1.49
344.963	1.53
345.325	1.62
345.688	1.58
346.05	1.54
346.412	1.54
346.775	1.54
347.137	1.44
347.499	1.43
347.861	1.44
348.223	1.42
348.585	1.45
348.947	1.39
349.309	1.32
349.671	1.37
350.033	1.38
350.395	1.35
350.757	1.35
351.118	1.41
351.48	1.47
351.842	1.48
352.203	1.49
352.565	1.5
352.927	1.55
353.288	1.54
353.65	1.49
354.011	1.46
354.372	1.41
354.734	1.43
355.095	1.46
355.456	1.47
355.817	1.45
356.179	1.48
356.54	1.49
356.901	1.47
357.262	1.45
357.623	1.44
357.984	1.5
358.345	1.54
358.705	1.48
359.066	1.43
359.427	1.42
359.788	1.4
360.148	1.32
360.509	1.29
360.87	1.25
361.23	1.2
361.591	1.18
361.951	1.13
362.312	1.13
362.672	1.1
363.032	1.18
363.393	1.21
363.753	1.24
364.113	1.27
364.473	1.23
364.833	1.29
365.193	1.27
365.553	1.25
365.913	1.2
366.273	1.21
366.633	1.23
366.993	1.17
367.353	1.11
367.713	1.1
368.072	1.1
368.432	1.14
368.792	1.14
369.151	1.14
369.511	1.18
369.87	1.23
370.23	1.29
370.589	1.24
370.949	1.26
371.308	1.27
371.667	1.3
372.027	1.21
372.386	1.2
372.745	1.19
373.104	1.16
373.463	1.2
373.822	1.15
374.181	1.18
374.54	1.19
374.899	1.26
375.258	1.21
375.617	1.13
375.975	1.21
376.334	1.27
376.693	1.38
377.052	1.44
377.41	1.45
377.769	1.51
378.127	1.55
378.486	1.59
378.844	1.56
379.202	1.55
379.561	1.64
379.919	1.67
380.277	1.62
380.636	1.62
380.994	1.63
381.352	1.65
381.71	1.71
382.068	1.78
382.426	1.75
382.784	1.74
383.142	1.75
383.5	1.75
383.857	1.82
384.215	1.92
384.573	1.97
384.931	1.93
385.288	1.92
385.646	1.87
386.003	1.83
386.361	1.86
386.718	1.88
387.076	1.88
387.433	1.9
387.791	1.91
388.148	2
388.505	1.97
388.862	1.96
389.22	2.03
389.577	2.11
389.934	2.17
390.291	2.23
390.648	2.25
391.005	2.33
391.362	2.42
391.718	2.54
392.075	2.64
392.432	2.71
392.789	2.74
393.145	2.79
393.502	2.92
393.859	2.98
394.215	3.08
394.572	3.22
394.928	3.32
395.285	3.41
395.641	3.49
395.997	3.67
396.354	3.71
396.71	3.91
397.066	4.01
397.422	4.21
397.778	4.36
398.134	4.53
398.491	4.67
398.846	4.88
399.202	5.1
399.558	5.25
399.914	5.41
400.27	5.65
400.626	5.81
400.981	6.02
401.337	6.26
401.693	6.43
402.048	6.68
402.404	6.95
402.759	7.24
403.115	7.57
403.47	7.83
403.826	8.2
404.181	8.5
404.536	8.7
404.892	8.93
405.247	9.27
405.602	9.62
405.957	9.94
406.312	10.15
406.667	10.5
407.022	10.88
407.377	11.27
407.732	11.65
408.087	11.97
408.442	12.38
408.796	12.74
409.151	13.07
409.506	13.44
409.86	13.93
410.215	14.39
410.57	14.81
410.924	15.18
411.279	15.51
411.633	15.9
411.987	16.3
412.342	16.75
412.696	17.09
413.05	17.53
413.404	18
413.758	18.61
414.113	19.07
414.467	19.48
414.821	19.83
415.175	20.35
415.529	20.87
415.882	21.28
416.236	21.64
416.59	22.01
416.944	22.43
417.298	22.9
417.651	23.31
418.005	23.79
418.358	24.2
418.712	24.47
419.065	24.74
419.419	25.15
419.772	25.56
420.126	25.99
420.479	26.43
420.832	26.78
421.185	27.04
421.539	27.37
421.892	27.69
422.245	27.99
422.598	28.13
422.951	28.54
423.304	28.84
423.657	29.22
424.01	29.64
424.363	29.89
424.715	30.32
425.068	30.64
425.421	30.98
425.773	31.34
426.126	31.65
426.479	31.93
426.831	32.19
427.184	32.46
427.536	32.67
427.889	32.96
428.241	33.2
428.593	33.46
428.945	33.73
429.298	33.95
429.65	34.26
430.002	34.57
430.354	34.91
430.706	35.21
431.058	35.51
431.41	35.83
431.762	36
432.114	36.18
432.466	36.35
432.817	36.43
433.169	36.72
433.521	36.82
433.872	37.08
434.224	37.19
434.576	37.29
434.927	37.37
435.279	37.51
435.63	37.69
435.981	37.87
436.333	38.17
436.684	38.34
437.035	38.49
437.387	38.57
437.738	38.7
438.089	38.89
438.44	39.07
438.791	39.1
439.142	39.25
439.493	39.54
439.844	39.64
440.195	39.7
440.545	39.74
440.896	39.92
441.247	40.07
441.598	40.21
441.948	40.13
442.299	40.3
442.649	40.32
443	40.51
443.35	40.6
443.701	40.65
444.051	40.65
444.401	40.69
444.752	40.77
445.102	40.66
445.452	40.68
445.802	40.8
446.152	40.81
446.502	40.82
446.852	40.75
447.202	40.54
447.552	40.7
447.902	40.68
448.252	40.43
448.602	40.8
448.952	40.84
449.301	40.88
449.651	40.97
450.001	41.02
450.35	41.03
450.7	41.06
451.049	40.92
451.399	40.97
451.748	40.94
452.097	40.82
452.447	40.84
452.796	40.97
453.145	40.83
453.494	40.67
453.843	40.78
454.193	40.77
454.542	40.7
454.891	40.8
455.239	40.71
455.588	40.7
455.937	40.84
456.286	40.74
456.635	40.67
456.984	40.71
457.332	40.44
457.681	40.46
458.03	40.35
458.378	40.07
458.727	39.89
459.075	39.89
459.423	39.99
459.772	40
460.12	39.93
460.468	39.81
460.817	39.84
461.165	39.71
461.513	39.5
461.861	39.55
462.209	39.48
462.557	39.36
462.905	39.34
463.253	39.26
463.601	39.19
463.949	39.08
464.297	39.06
464.644	38.91
464.992	38.82
465.34	38.67
465.687	38.53
466.035	38.28
466.383	38.06
466.73	38
467.078	38.02
467.425	37.96
467.772	37.77
468.12	37.6
468.467	37.41
468.814	37.31
469.161	37.13
469.508	36.92
469.856	36.87
470.203	36.83
470.55	36.64
470.897	36.62
471.243	36.51
471.59	36.32
471.937	36.16
472.284	36.03
472.631	35.96
472.977	35.83
473.324	35.68
473.671	35.57
474.017	35.45
474.364	35.35
474.71	35.17
475.057	35.12
475.403	34.99
475.749	34.72
476.096	34.45
476.442	34.36
476.788	34.26
477.134	34.18
477.48	34.01
477.826	33.9
478.172	33.9
478.518	33.76
478.864	33.62
479.21	33.57
479.556	33.5
479.902	33.32
480.248	33.27
480.593	33.1
480.939	32.96
481.285	32.83
481.63	32.74
481.976	32.61
482.321	32.41
482.667	32.34
483.012	32.12
483.357	32.05
483.703	31.92
484.048	31.79
484.393	31.72
484.738	31.75
485.084	31.63
485.429	31.48
485.774	31.33
486.119	31.28
486.464	31.2
486.808	30.99
487.153	30.84
487.498	30.66
487.843	30.47
488.188	30.28
488.532	30.1
488.877	29.89
489.222	29.85
489.566	29.7
489.911	29.55
490.255	29.33
490.6	29.14
490.944	29.08
491.288	28.9
491.633	28.89
491.977	28.77
492.321	28.56
492.665	28.38
493.009	28.25
493.353	28.05
493.697	27.95
494.041	27.77
494.385	27.68
494.729	27.56
495.073	27.43
495.417	27.32
495.76	27.21
496.104	27.07
496.448	26.94
496.791	26.82
497.135	26.67
497.479	26.48
497.822	26.28
498.165	26.16
498.509	26.02
498.852	25.85
499.196	25.75
499.539	25.61
499.882	25.52
500.225	25.33
500.568	25.19
500.911	25.08
501.254	25.01
501.597	24.86
501.94	24.7
502.283	24.55
502.626	24.48
502.969	24.41
503.312	24.29
503.654	24.16
503.997	24.04
504.34	23.91
504.682	23.86
505.025	23.86
505.367	23.67
505.71	23.62
506.052	23.55
506.395	23.45
506.737	23.29
507.079	23.11
507.421	23.04
507.764	22.91
508.106	22.78
508.448	22.64
508.79	22.64
509.132	22.54
509.474	22.53
509.816	22.41
510.158	22.3
510.499	22.3
510.841	22.22
511.183	22.13
511.525	21.95
511.866	21.83
512.208	21.69
512.549	21.63
512.891	21.49
513.232	21.4
513.574	21.22
513.915	21.25
514.256	21.13
514.598	21.14
514.939	21.09
515.28	21.05
515.621	21.1
515.962	21
516.303	21.01
516.644	20.89
516.985	20.79
517.326	20.56
517.667	20.42
518.008	20.3
518.349	20.2
518.69	20.11
519.03	19.95
519.371	19.85
519.712	19.78
520.052	19.57
520.393	19.49
520.733	19.41
521.074	19.24
521.414	19.17
521.754	19.13
522.095	18.99
522.435	18.83
522.775	18.8
523.115	18.59
523.455	18.39
523.795	18.26
524.135	18.17
524.475	18.01
524.815	17.9
525.155	17.85
525.495	17.77
525.835	17.74
526.175	17.71
526.514	17.62
526.854	17.58
527.194	17.46
527.533	17.38
527.873	17.29
528.212	17.17
528.552	17.26
528.891	17.21
529.23	17.17
529.57	17.12
529.909	17.18
530.248	17.02
530.587	16.96
530.927	16.95
531.266	16.86
531.605	16.79
531.944	16.76
532.283	16.65
532.621	16.57
532.96	16.58
533.299	16.45
533.638	16.45
533.977	16.38
534.315	16.39
534.654	16.25
534.992	16.19
535.331	16.19
535.67	16.23
536.008	16.23
536.346	16.24
536.685	16.18
537.023	16.06
537.361	15.93
537.7	15.85
538.038	15.92
538.376	15.7
538.714	15.7
539.052	15.69
539.39	15.55
539.728	15.53
540.066	15.47
540.404	15.47
540.741	15.45
541.079	15.37
541.417	15.27
541.755	15.25
542.092	15.13
542.43	15.14
542.767	14.96
543.105	15
543.442	14.96
543.78	14.88
544.117	14.92
544.454	14.85
544.792	14.75
545.129	14.81
545.466	14.89
545.803	14.95
546.14	14.88
546.477	14.78
546.814	14.88
547.151	14.8
547.488	14.79
547.825	14.66
548.162	14.61
548.499	14.58
548.835	14.51
549.172	14.44
549.509	14.5
549.845	14.55
550.182	14.63
550.518	14.6
550.855	14.53
551.191	14.63
551.528	14.65
551.864	14.66
552.2	14.74
552.537	14.64
552.873	14.64
553.209	14.61
553.545	14.54
553.881	14.49
554.217	14.34
554.553	14.41
554.889	14.48
555.225	14.55
555.561	14.48
555.896	14.45
556.232	14.62
556.568	14.67
556.903	14.7
557.239	14.68
557.575	14.71
557.91	14.69
558.245	14.8
558.581	14.67
558.916	14.75
559.252	14.97
559.587	14.92
559.922	14.88
560.257	14.9
560.592	14.92
560.928	14.94
561.263	15.02
561.598	14.96
561.933	15.03
562.267	15.24
562.602	15.38
562.937	15.4
563.272	15.42
563.607	15.35
563.941	15.52
564.276	15.46
564.611	15.41
564.945	15.36
565.28	15.38
565.614	15.4
565.949	15.49
566.283	15.49
566.617	15.51
566.951	15.62
567.286	15.63
567.62	15.47
567.954	15.46
568.288	15.52
568.622	15.5
568.956	15.42
569.29	15.46
569.624	15.38
569.958	15.51
570.292	15.55
570.626	15.41
570.959	15.49
571.293	15.53
571.627	15.57
571.96	15.7
572.294	15.72
572.627	15.86
572.961	15.93
573.294	16
573.627	16.06
573.961	16.16
574.294	16.22
574.627	16.31
574.961	16.31
575.294	16.35
575.627	16.42
575.96	16.47
576.293	16.58
576.626	16.68
576.959	16.74
577.292	16.84
577.624	16.88
577.957	17.01
578.29	17.14
578.623	17.14
578.955	17.21
579.288	17.21
579.62	17.28
579.953	17.35
580.285	17.31
580.618	17.42
580.95	17.41
581.282	17.49
581.615	17.51
581.947	17.59
582.279	17.64
582.611	17.68
582.943	17.75
583.275	17.78
583.607	17.91
583.939	17.93
584.271	18.03
584.603	18.11
584.935	18.11
585.267	18.07
585.598	18.11
585.93	18.24
586.262	18.28
586.593	18.26
586.925	18.35
587.256	18.52
587.588	18.65
587.919	18.76
588.25	18.86
588.582	19
588.913	18.97
589.244	19.06
589.575	19.22
589.907	19.34
590.238	19.43
590.569	19.56
590.9	19.6
591.231	19.64
591.562	19.78
591.892	19.86
592.223	20.08
592.554	20.33
592.885	20.51
593.215	20.57
593.546	20.78
593.877	20.9
594.207	20.89
594.538	20.95
594.868	21
595.198	21.11
595.529	21.19
595.859	21.29
596.189	21.37
596.52	21.49
596.85	21.58
597.18	21.73
597.51	21.79
597.84	21.81
598.17	21.96
598.5	22.08
598.83	22.22
599.16	22.56
599.489	22.77
599.819	22.97
600.149	23.11
600.479	23.22
600.808	23.23
601.138	23.23
601.467	23.44
601.797	23.67
602.126	23.85
602.456	24.2
602.785	24.41
603.114	24.71
603.443	24.98
603.773	25.22
604.102	25.41
604.431	25.49
604.76	25.68
605.089	25.86
605.418	26.01
605.747	26.33
606.076	26.47
606.405	26.66
606.733	26.85
607.062	27.03
607.391	27.09
607.72	27.2
608.048	27.33
608.377	27.57
608.705	27.82
609.034	28.09
609.362	28.43
609.69	28.8
610.019	28.93
610.347	29.18
610.675	29.3
611.004	29.59
611.332	29.67
611.66	29.89
611.988	30.03
612.316	30.13
612.644	30.31
612.972	30.39
613.3	30.48
613.627	30.88
613.955	30.97
614.283	31.19
614.611	31.49
614.938	31.62
615.266	31.85
615.593	31.96
615.921	32.18
616.248	32.62
616.576	32.88
616.903	32.98
617.23	33.29
617.558	33.78
617.885	33.94
618.212	34.46
618.539	34.76
618.866	35.03
619.193	35.02
619.52	35.55
619.847	35.6
620.174	35.82
620.501	36.26
620.828	36.47
621.155	36.65
621.481	36.96
621.808	37.2
622.135	37.81
622.461	38.15
622.788	38.32
623.114	38.6
623.441	38.66
623.767	39.23
624.093	39.68
624.42	39.81
624.746	40.21
625.072	40.55
625.398	40.89
625.725	40.96
626.051	41.13
626.377	41.32
626.703	41.46
627.029	41.7
627.354	42.37
627.68	42.48
628.006	42.75
628.332	42.97
628.658	43.04
628.983	43.48
629.309	43.83
629.634	44.21
629.96	44.26
630.285	43.9
630.611	44.14
630.936	44.29
631.262	44.6
631.587	44.91
631.912	44.82
632.237	44.93
632.562	45.25
632.887	45.33
633.213	45.83
633.538	46.27
633.863	46.45
634.187	46.56
634.512	46.36
634.837	46.7
635.162	46.82
635.487	47.25
635.811	47.36
636.136	47.87
636.461	48.33
636.785	48.6
637.11	49.13
637.434	49.23
637.758	49.58
638.083	49.87
638.407	50.5
638.731	50.86
639.056	50.58
639.38	50.85
639.704	51.11
640.028	51.68
640.352	51.92
640.676	52.01
641	51.93
641.324	51.84
641.648	51.53
641.972	51.36
642.295	51.49
642.619	51.54
642.943	50.97
643.266	50.82
643.59	50.37
643.913	50.57
644.237	50.64
644.56	50.22
644.884	49.92
645.207	49.6
645.53	49.78
645.854	50.1
646.177	50.21
646.5	49.84
646.823	49.73
647.146	50.56
647.469	50.51
647.792	50.65
648.115	50.17
648.438	50.24
648.761	52.39
649.084	53.24
649.406	53.29
649.729	52.59
650.052	52.22
650.374	52.24
650.697	52.33
651.019	52.62
651.342	52.85
651.664	52.9
651.987	52.77
652.309	52.61
652.631	52.73
652.953	53
653.276	53.07
653.598	53.29
653.92	53.29
654.242	53.31
654.564	53.28
654.886	53.35
655.208	53.13
655.53	53.12
655.851	52.85
656.173	53
656.495	53.13
656.816	52.35
657.138	51.57
657.46	51.2
657.781	52
658.103	53.1
658.424	53.37
658.746	53.98
659.067	53.69
