Data from T1_Reflection__132__15-13-32-859.txt Node

Date: Thu Jun 03 15:13:32 CEST 2021
User: mabdelazizm
Spectrometer: FLMS18565
Trigger mode: 0
Integration Time (sec): 2.000000E0
Scans to average: 1
Electric dark correction enabled: true
Nonlinearity correction enabled: false
Boxcar width: 12
XAxis mode: Wavelengths
Number of Pixels in Spectrum: 2048
>>>>>Begin Spectral Data<<<<<
179.071	120.65
179.452	125.68
179.833	103.37
180.214	100
180.595	109.14
180.977	109.84
181.358	97
181.739	97.72
182.12	103.95
182.501	85.68
182.882	92.33
183.262	82.41
183.643	36.74
184.024	16.19
184.405	2.76
184.786	-6.92
185.166	-12.24
185.547	-18.49
185.927	-8.75
186.308	-10.23
186.689	-3.14
187.069	0.71
187.449	4.12
187.83	-0.35
188.21	-4.65
188.59	-3.32
188.971	0.53
189.351	0.76
189.731	3.58
190.111	7.73
190.491	3.81
190.871	10.18
191.251	14.05
191.631	14.69
192.011	16.54
192.391	17.51
192.771	20.32
193.151	20.92
193.531	20.28
193.91	22.42
194.29	21.93
194.67	21.76
195.049	21.98
195.429	20.09
195.808	18.34
196.188	15.66
196.567	13.72
196.946	16.08
197.326	16.41
197.705	16.67
198.084	18.87
198.464	17.64
198.843	18.99
199.222	18.26
199.601	17.42
199.98	18.04
200.359	17.46
200.738	14.71
201.117	14.12
201.496	14.22
201.875	12.82
202.254	11.14
202.632	11.79
203.011	12.13
203.39	11.54
203.768	13.8
204.147	14.16
204.525	14.01
204.904	14.91
205.282	17.01
205.661	16.43
206.039	19.42
206.418	17.67
206.796	18.52
207.174	19.22
207.552	16.9
207.931	14.36
208.309	12.81
208.687	12.46
209.065	12.42
209.443	13.33
209.821	11.51
210.199	11.84
210.577	11.51
210.954	12.44
211.332	12.71
211.71	11.6
212.088	12.61
212.465	12.59
212.843	12.38
213.221	10.92
213.598	12.03
213.976	12.56
214.353	12.61
214.731	12.06
215.108	13.25
215.485	11.11
215.863	11.1
216.24	10.51
216.617	10.55
216.994	10.55
217.371	11.45
217.749	10.69
218.126	10.11
218.503	10.41
218.88	10.17
219.256	10.8
219.633	9.7
220.01	8.52
220.387	8.91
220.764	8.48
221.14	8.17
221.517	7.32
221.894	7.19
222.27	6.79
222.647	5.81
223.023	4.63
223.4	4.16
223.776	3.79
224.153	3.69
224.529	2.71
224.905	3.18
225.282	3.26
225.658	2.93
226.034	3.04
226.41	3.05
226.786	3.12
227.162	3.24
227.538	3.02
227.914	2.7
228.29	2.56
228.666	2.24
229.042	2.52
229.418	2.73
229.793	2.26
230.169	2.54
230.545	2.72
230.92	2.99
231.296	2.63
231.672	2.58
232.047	2.68
232.422	2.8
232.798	2.81
233.173	2.89
233.549	2.62
233.924	2.75
234.299	2.57
234.674	2.51
235.05	2.42
235.425	2.23
235.8	2.19
236.175	2.09
236.55	2.19
236.925	2.19
237.3	2.16
237.675	2.12
238.049	2.13
238.424	2.04
238.799	2.07
239.174	2.09
239.548	1.91
239.923	1.83
240.297	1.69
240.672	1.78
241.046	1.82
241.421	1.83
241.795	1.83
242.17	1.86
242.544	1.85
242.918	2.01
243.293	2.06
243.667	2.07
244.041	2.05
244.415	2.04
244.789	2.05
245.163	2
245.537	2.03
245.911	1.9
246.285	1.86
246.659	1.84
247.033	1.82
247.406	1.85
247.78	1.85
248.154	1.82
248.528	1.79
248.901	1.8
249.275	1.84
249.648	1.8
250.022	1.85
250.395	1.77
250.769	1.78
251.142	1.73
251.515	1.65
251.888	1.61
252.262	1.51
252.635	1.46
253.008	1.4
253.381	1.42
253.754	1.45
254.127	1.44
254.5	1.42
254.873	1.38
255.246	1.46
255.619	1.5
255.992	1.47
256.364	1.46
256.737	1.39
257.11	1.37
257.483	1.34
257.855	1.33
258.228	1.36
258.6	1.35
258.973	1.38
259.345	1.32
259.718	1.31
260.09	1.29
260.462	1.32
260.834	1.34
261.207	1.29
261.579	1.32
261.951	1.31
262.323	1.31
262.695	1.27
263.067	1.27
263.439	1.29
263.811	1.29
264.183	1.3
264.555	1.28
264.927	1.25
265.298	1.28
265.67	1.29
266.042	1.34
266.413	1.32
266.785	1.31
267.156	1.35
267.528	1.41
267.899	1.37
268.271	1.32
268.642	1.27
269.013	1.26
269.385	1.28
269.756	1.22
270.127	1.21
270.498	1.2
270.87	1.17
271.241	1.18
271.612	1.21
271.983	1.23
272.354	1.22
272.724	1.22
273.095	1.2
273.466	1.16
273.837	1.12
274.208	1.1
274.578	1.09
274.949	1.09
275.32	1.1
275.69	1.12
276.061	1.06
276.431	1.05
276.802	0.98
277.172	0.95
277.542	0.96
277.913	0.99
278.283	0.98
278.653	0.94
279.023	1.05
279.394	1.01
279.764	1.02
280.134	1.02
280.504	0.98
280.874	0.94
281.244	0.94
281.614	0.9
281.983	0.88
282.353	0.9
282.723	0.92
283.093	0.93
283.462	0.92
283.832	0.91
284.202	0.91
284.571	0.88
284.941	0.87
285.31	0.9
285.68	0.81
286.049	0.86
286.418	0.83
286.788	0.93
287.157	0.92
287.526	0.99
287.895	0.96
288.264	0.92
288.633	0.9
289.002	0.93
289.371	0.97
289.74	1
290.109	1.02
290.478	0.96
290.847	0.94
291.216	0.94
291.585	0.94
291.953	0.91
292.322	0.91
292.691	0.92
293.059	0.93
293.428	0.88
293.796	0.89
294.165	0.87
294.533	0.87
294.901	0.96
295.27	0.96
295.638	1.02
296.006	0.85
296.374	0.87
296.743	0.81
297.111	0.82
297.479	0.79
297.847	0.85
298.215	0.8
298.583	0.78
298.95	0.73
299.318	0.76
299.686	0.85
300.054	0.9
300.422	0.89
300.789	0.88
301.157	0.92
301.525	0.91
301.892	0.9
302.26	0.9
302.627	0.95
302.994	0.95
303.362	1
303.729	1.04
304.097	1.04
304.464	0.99
304.831	1.01
305.198	1.04
305.565	1.05
305.932	1.09
306.299	1.13
306.666	1.11
307.033	1.09
307.4	1.15
307.767	1.09
308.134	1.09
308.501	1.08
308.867	1.02
309.234	0.97
309.601	0.94
309.967	0.92
310.334	0.92
310.701	0.92
311.067	0.84
311.433	0.87
311.8	0.84
312.166	0.83
312.533	0.78
312.899	0.76
313.265	0.71
313.631	0.71
313.997	0.67
314.363	0.73
314.729	0.7
315.096	0.69
315.461	0.68
315.827	0.73
316.193	0.76
316.559	0.73
316.925	0.77
317.291	0.81
317.656	0.75
318.022	0.79
318.388	0.83
318.753	0.85
319.119	0.84
319.484	0.86
319.85	0.87
320.215	0.94
320.581	0.86
320.946	0.88
321.311	0.91
321.676	0.98
322.042	0.96
322.407	0.96
322.772	0.94
323.137	1.01
323.502	0.96
323.867	0.96
324.232	0.92
324.597	0.92
324.962	0.87
325.327	0.83
325.691	0.93
326.056	0.92
326.421	0.92
326.785	0.94
327.15	0.91
327.514	0.85
327.879	0.88
328.243	0.92
328.608	0.95
328.972	0.97
329.337	1.01
329.701	1.11
330.065	1.12
330.429	1.07
330.794	0.97
331.158	0.99
331.522	0.99
331.886	1
332.25	0.92
332.614	0.93
332.978	0.9
333.342	0.91
333.705	0.9
334.069	0.87
334.433	0.93
334.797	0.82
335.16	0.8
335.524	0.78
335.887	0.8
336.251	0.8
336.614	0.83
336.978	0.74
337.341	0.7
337.705	0.66
338.068	0.71
338.431	0.71
338.794	0.64
339.158	0.56
339.521	0.58
339.884	0.55
340.247	0.56
340.61	0.55
340.973	0.59
341.336	0.58
341.699	0.56
342.062	0.57
342.424	0.53
342.787	0.52
343.15	0.55
343.512	0.49
343.875	0.52
344.238	0.58
344.6	0.61
344.963	0.57
345.325	0.58
345.688	0.57
346.05	0.63
346.412	0.62
346.775	0.58
347.137	0.47
347.499	0.43
347.861	0.46
348.223	0.47
348.585	0.51
348.947	0.57
349.309	0.51
349.671	0.54
350.033	0.56
350.395	0.53
350.757	0.59
351.118	0.68
351.48	0.77
351.842	0.73
352.203	0.71
352.565	0.76
352.927	0.81
353.288	0.74
353.65	0.7
354.011	0.71
354.372	0.77
354.734	0.76
355.095	0.77
355.456	0.78
355.817	0.77
356.179	0.81
356.54	0.89
356.901	0.81
357.262	0.85
357.623	0.88
357.984	0.89
358.345	1.01
358.705	0.99
359.066	0.94
359.427	1.01
359.788	0.97
360.148	0.92
360.509	0.86
360.87	0.89
361.23	0.88
361.591	0.86
361.951	0.82
362.312	0.86
362.672	0.84
363.032	0.97
363.393	0.93
363.753	0.94
364.113	0.91
364.473	0.95
364.833	0.95
365.193	0.98
365.553	0.99
365.913	1.04
366.273	1.06
366.633	1
366.993	0.97
367.353	0.91
367.713	0.91
368.072	0.88
368.432	0.85
368.792	0.83
369.151	0.79
369.511	0.76
369.87	0.86
370.23	0.92
370.589	0.96
370.949	1
371.308	0.95
371.667	0.99
372.027	0.87
372.386	0.87
372.745	0.94
373.104	1.01
373.463	1.03
373.822	1.02
374.181	0.99
374.54	0.93
374.899	1.02
375.258	0.93
375.617	0.92
375.975	1
376.334	1
376.693	1.14
377.052	1.22
377.41	1.21
377.769	1.33
378.127	1.39
378.486	1.48
378.844	1.37
379.202	1.4
379.561	1.38
379.919	1.38
380.277	1.41
380.636	1.44
380.994	1.48
381.352	1.51
381.71	1.56
382.068	1.62
382.426	1.62
382.784	1.71
383.142	1.8
383.5	1.83
383.857	1.9
384.215	2.06
384.573	2.15
384.931	2.2
385.288	2.21
385.646	2.21
386.003	2.32
386.361	2.49
386.718	2.65
387.076	2.8
387.433	2.97
387.791	3.15
388.148	3.31
388.505	3.53
388.862	3.69
389.22	3.94
389.577	4.13
389.934	4.35
390.291	4.55
390.648	4.73
391.005	4.97
391.362	5.23
391.718	5.53
392.075	5.8
392.432	6.15
392.789	6.38
393.145	6.68
393.502	7.07
393.859	7.42
394.215	7.8
394.572	8.11
394.928	8.41
395.285	8.74
395.641	9.09
395.997	9.5
396.354	9.85
396.71	10.32
397.066	10.74
397.422	11.11
397.778	11.56
398.134	11.97
398.491	12.44
398.846	12.93
399.202	13.45
399.558	13.84
399.914	14.32
400.27	14.89
400.626	15.41
400.981	15.94
401.337	16.4
401.693	16.92
402.048	17.46
402.404	17.95
402.759	18.52
403.115	19.13
403.47	19.71
403.826	20.36
404.181	21
404.536	21.55
404.892	21.98
405.247	22.57
405.602	23.19
405.957	23.86
406.312	24.47
406.667	25.13
407.022	25.71
407.377	26.38
407.732	26.98
408.087	27.59
408.442	28.37
408.796	28.95
409.151	29.45
409.506	30.04
409.86	30.74
410.215	31.53
410.57	32.23
410.924	32.89
411.279	33.45
411.633	34.07
411.987	34.64
412.342	35.32
412.696	35.8
413.05	36.35
413.404	36.9
413.758	37.72
414.113	38.31
414.467	38.75
414.821	39.19
415.175	39.76
415.529	40.18
415.882	40.74
416.236	41.15
416.59	41.68
416.944	42.16
417.298	42.62
417.651	43.11
418.005	43.55
418.358	43.96
418.712	44.19
419.065	44.47
419.419	44.77
419.772	45.12
420.126	45.5
420.479	45.7
420.832	46.01
421.185	46.2
421.539	46.54
421.892	46.86
422.245	47.07
422.598	47.13
422.951	47.34
423.304	47.64
423.657	47.83
424.01	48.04
424.363	48.28
424.715	48.51
425.068	48.77
425.421	48.93
425.773	49.07
426.126	49.29
426.479	49.36
426.831	49.64
427.184	49.82
427.536	50.04
427.889	50.17
428.241	50.29
428.593	50.44
428.945	50.58
429.298	50.74
429.65	50.92
430.002	51.13
430.354	51.34
430.706	51.44
431.058	51.52
431.41	51.86
431.762	51.96
432.114	52.06
432.466	52.16
432.817	52.27
433.169	52.54
433.521	52.61
433.872	52.68
434.224	52.68
434.576	52.82
434.927	52.76
435.279	52.99
435.63	53.04
435.981	53.12
436.333	53.19
436.684	53.19
437.035	53.42
437.387	53.43
437.738	53.72
438.089	53.9
438.44	53.99
438.791	54.17
439.142	54.16
439.493	54.22
439.844	54.41
440.195	54.32
440.545	54.35
440.896	54.58
441.247	54.73
441.598	54.75
441.948	54.77
442.299	54.92
442.649	54.94
443	55.11
443.35	55.16
443.701	55.35
444.051	55.33
444.401	55.4
444.752	55.45
445.102	55.5
445.452	55.58
445.802	55.66
446.152	55.81
446.502	55.74
446.852	55.79
447.202	55.72
447.552	55.68
447.902	55.86
448.252	55.89
448.602	56.42
448.952	56.47
449.301	56.62
449.651	56.62
450.001	56.71
450.35	56.9
450.7	56.78
451.049	56.75
451.399	56.94
451.748	57.04
452.097	57.13
452.447	57.19
452.796	57.38
453.145	57.32
453.494	57.4
453.843	57.4
454.193	57.46
454.542	57.36
454.891	57.38
455.239	57.29
455.588	57.37
455.937	57.55
456.286	57.64
456.635	57.57
456.984	57.52
457.332	57.04
457.681	56.99
458.03	56.94
458.378	56.77
458.727	56.75
459.075	56.81
459.423	57.09
459.772	57.15
460.12	56.97
460.468	56.85
460.817	56.83
461.165	56.83
461.513	56.69
461.861	56.79
462.209	56.74
462.557	56.85
462.905	56.69
463.253	56.61
463.601	56.52
463.949	56.48
464.297	56.31
464.644	56.23
464.992	56.09
465.34	55.92
465.687	56.04
466.035	55.82
466.383	55.76
466.73	55.72
467.078	55.84
467.425	55.79
467.772	55.65
468.12	55.3
468.467	55.13
468.814	55.22
469.161	55.14
469.508	55.11
469.856	54.96
470.203	55
470.55	54.83
470.897	54.69
471.243	54.56
471.59	54.63
471.937	54.66
472.284	54.77
472.631	54.72
472.977	54.71
473.324	54.64
473.671	54.6
474.017	54.5
474.364	54.51
474.71	54.44
475.057	54.48
475.403	54.39
475.749	54.2
476.096	54.03
476.442	53.85
476.788	53.96
477.134	53.99
477.48	53.83
477.826	53.75
478.172	53.67
478.518	53.62
478.864	53.49
479.21	53.61
479.556	53.6
479.902	53.46
480.248	53.39
480.593	53.24
480.939	52.98
481.285	52.93
481.63	52.8
481.976	52.6
482.321	52.51
482.667	52.52
483.012	52.39
483.357	52.41
483.703	52.31
484.048	52.28
484.393	52.31
484.738	52.37
485.084	52.28
485.429	52.14
485.774	52
486.119	51.96
486.464	51.9
486.808	51.82
487.153	51.67
487.498	51.59
487.843	51.38
488.188	51.38
488.532	51.28
488.877	51.16
489.222	51.1
489.566	51.06
489.911	50.87
490.255	50.83
490.6	50.89
490.944	50.77
491.288	50.53
491.633	50.39
491.977	50.32
492.321	50.24
492.665	50.14
493.009	50.04
493.353	49.88
493.697	49.86
494.041	49.74
494.385	49.78
494.729	49.71
495.073	49.68
495.417	49.54
495.76	49.59
496.104	49.53
496.448	49.41
496.791	49.31
497.135	49.21
497.479	49.1
497.822	49.02
498.165	49.01
498.509	49
498.852	48.82
499.196	48.7
499.539	48.63
499.882	48.7
500.225	48.67
500.568	48.62
500.911	48.52
501.254	48.52
501.597	48.42
501.94	48.37
502.283	48.25
502.626	48.25
502.969	48.16
503.312	48.07
503.654	48.05
503.997	47.96
504.34	47.75
504.682	47.68
505.025	47.52
505.367	47.33
505.71	47.31
506.052	47.33
506.395	47.23
506.737	47.1
507.079	47.03
507.421	47.05
507.764	46.95
508.106	46.75
508.448	46.61
508.79	46.42
509.132	46.26
509.474	46.16
509.816	45.93
510.158	45.84
510.499	45.74
510.841	45.71
511.183	45.65
511.525	45.51
511.866	45.5
512.208	45.3
512.549	45.27
512.891	45.19
513.232	45.03
513.574	45.06
513.915	45.08
514.256	45.05
514.598	44.86
514.939	44.88
515.28	44.79
515.621	44.76
515.962	44.71
516.303	44.75
516.644	44.87
516.985	44.88
517.326	44.81
517.667	44.8
518.008	44.8
518.349	44.7
518.69	44.59
519.03	44.46
519.371	44.32
519.712	44.2
520.052	44.04
520.393	43.85
520.733	43.78
521.074	43.76
521.414	43.75
521.754	43.75
522.095	43.66
522.435	43.52
522.775	43.39
523.115	43.41
523.455	43.24
523.795	43.21
524.135	43.14
524.475	43.04
524.815	42.77
525.155	42.6
525.495	42.46
525.835	42.43
526.175	42.25
526.514	42.07
526.854	42.07
527.194	42
527.533	41.95
527.873	41.98
528.212	41.83
528.552	41.87
528.891	41.82
529.23	41.79
529.57	41.58
529.909	41.5
530.248	41.4
530.587	41.35
530.927	41.36
531.266	41.23
531.605	40.99
531.944	40.88
532.283	40.73
532.621	40.67
532.96	40.59
533.299	40.64
533.638	40.62
533.977	40.41
534.315	40.4
534.654	40.38
534.992	40.39
535.331	40.26
535.67	40.16
536.008	40.13
536.346	40.03
536.685	39.93
537.023	39.8
537.361	39.65
537.7	39.46
538.038	39.46
538.376	39.33
538.714	39.26
539.052	39.19
539.39	39.03
539.728	38.98
540.066	38.96
540.404	38.98
540.741	38.85
541.079	38.68
541.417	38.57
541.755	38.42
542.092	38.24
542.43	38.33
542.767	38.07
543.105	38.01
543.442	37.89
543.78	37.76
544.117	37.78
544.454	37.65
544.792	37.53
545.129	37.7
545.466	37.69
545.803	37.84
546.14	37.76
546.477	37.71
546.814	37.75
547.151	37.69
547.488	37.6
547.825	37.49
548.162	37.5
548.499	37.46
548.835	37.43
549.172	37.46
549.509	37.48
549.845	37.46
550.182	37.53
550.518	37.59
550.855	37.56
551.191	37.67
551.528	37.73
551.864	37.73
552.2	38.02
552.537	38.08
552.873	38.08
553.209	38.18
553.545	38.06
553.881	37.94
554.217	37.81
554.553	37.81
554.889	37.74
555.225	37.69
555.561	37.67
555.896	37.77
556.232	37.9
556.568	37.91
556.903	38.04
557.239	38
557.575	37.97
557.91	38.03
558.245	38.16
558.581	38.07
558.916	38.12
559.252	38.16
559.587	38.19
559.922	38.2
560.257	38.27
560.592	38
560.928	37.83
561.263	37.87
561.598	37.82
561.933	37.81
562.267	38.02
562.602	38.19
562.937	38.33
563.272	38.49
563.607	38.59
563.941	38.67
564.276	38.72
564.611	38.89
564.945	39.03
565.28	38.93
565.614	38.95
565.949	39.07
566.283	39.03
566.617	39.07
566.951	39.17
567.286	39.2
567.62	39.25
567.954	39.32
568.288	39.29
568.622	39.34
568.956	39.29
569.29	39.3
569.624	39.24
569.958	39.29
570.292	39.42
570.626	39.46
570.959	39.51
571.293	39.63
571.627	39.74
571.96	39.76
572.294	39.75
572.627	39.65
572.961	39.54
573.294	39.42
573.627	39.45
573.961	39.54
574.294	39.55
574.627	39.69
574.961	39.71
575.294	39.71
575.627	39.62
575.96	39.57
576.293	39.58
576.626	39.6
576.959	39.67
577.292	39.8
577.624	39.9
577.957	40.1
578.29	40.19
578.623	40.19
578.955	40.13
579.288	40.04
579.62	40.01
579.953	40.01
580.285	40.01
580.618	40.22
580.95	40.3
581.282	40.45
581.615	40.56
581.947	40.63
582.279	40.79
582.611	40.82
582.943	40.85
583.275	40.84
583.607	41.03
583.939	41.19
584.271	41.33
584.603	41.42
584.935	41.53
585.267	41.5
585.598	41.54
585.93	41.59
586.262	41.53
586.593	41.58
586.925	41.65
587.256	41.8
587.588	41.97
587.919	42.01
588.25	42.11
588.582	42.18
588.913	42.06
589.244	42.2
589.575	42.32
589.907	42.41
590.238	42.63
590.569	42.62
590.9	42.82
591.231	42.96
591.562	43.05
591.892	43.14
592.223	43.42
592.554	43.59
592.885	43.78
593.215	43.8
593.546	43.83
593.877	43.95
594.207	44.01
594.538	44.24
594.868	44.32
595.198	44.36
595.529	44.46
595.859	44.65
596.189	44.8
596.52	44.92
596.85	44.97
597.18	45.16
597.51	45.28
597.84	45.31
598.17	45.55
598.5	45.6
598.83	45.65
599.16	45.76
599.489	45.77
599.819	45.91
600.149	45.96
600.479	46.13
600.808	46.28
601.138	46.32
601.467	46.52
601.797	46.86
602.126	47.08
602.456	47.42
602.785	47.49
603.114	47.59
603.443	47.8
603.773	48.16
604.102	48.31
604.431	48.51
604.76	48.58
605.089	48.96
605.418	49.12
605.747	49.28
606.076	49.39
606.405	49.42
606.733	49.56
607.062	49.78
607.391	50.01
607.72	50.16
608.048	50.35
608.377	50.65
608.705	50.75
609.034	50.9
609.362	50.99
609.69	51.3
610.019	51.3
610.347	51.32
610.675	51.27
611.004	51.43
611.332	51.61
611.66	51.82
611.988	51.78
612.316	51.76
612.644	51.81
612.972	51.88
613.3	51.6
613.627	51.83
613.955	52
614.283	52.36
614.611	52.72
614.938	52.92
615.266	53.04
615.593	52.92
615.921	53.16
616.248	53.4
616.576	53.37
616.903	53.25
617.23	53.38
617.558	53.95
617.885	54.09
618.212	54.52
618.539	54.92
618.866	55.27
619.193	55.46
619.52	55.63
619.847	55.75
620.174	55.68
620.501	55.96
620.828	56
621.155	56.02
621.481	56.34
621.808	56.16
622.135	56.29
622.461	56.09
622.788	55.67
623.114	55.73
623.441	55.7
623.767	55.92
624.093	55.95
624.42	55.94
624.746	56.43
625.072	56.56
625.398	56.69
625.725	56.77
626.051	56.9
626.377	57.01
626.703	56.95
627.029	56.94
627.354	57.18
627.68	57.34
628.006	57.35
628.332	57.61
628.658	57.7
628.983	57.94
629.309	58.6
629.634	58.82
629.96	59.11
630.285	59.05
630.611	58.96
630.936	59.13
631.262	59.12
631.587	59.11
631.912	59.28
632.237	59.52
632.562	59.82
632.887	59.49
633.213	60.3
633.538	60.83
633.863	60.82
634.187	60.88
634.512	60.73
634.837	60.76
635.162	60.89
635.487	60.67
635.811	60.63
636.136	60.92
636.461	61.08
636.785	61.06
637.11	61.58
637.434	61.29
637.758	61.57
638.083	61.69
638.407	62.49
638.731	63.34
639.056	63.86
639.38	64.21
639.704	64.71
640.028	65.12
640.352	65.46
640.676	65.94
641	65.9
641.324	65.39
641.648	65.1
641.972	65.02
642.295	65.02
642.619	65.36
642.943	65.68
643.266	65.29
643.59	65.08
643.913	65.68
644.237	65.75
644.56	65.61
644.884	65.65
645.207	65.56
645.53	65.2
645.854	65.94
646.177	65.63
646.5	65.02
646.823	64.74
647.146	64.81
647.469	64.59
647.792	65.04
648.115	64.55
648.438	64.73
648.761	66.8
649.084	66.94
649.406	66.16
649.729	64.72
650.052	64.2
650.374	63.98
650.697	63.88
651.019	63.77
651.342	64
651.664	64.07
651.987	63.94
652.309	63.69
652.631	63.87
652.953	63.95
653.276	63.66
653.598	63.77
653.92	63.52
654.242	63.63
654.564	63.48
654.886	63.48
655.208	63.36
655.53	63.36
655.851	63.1
656.173	63.16
656.495	63.01
656.816	61.76
657.138	60.82
657.46	60.26
657.781	61.16
