Data from T1_Reflection__68__14-10-42-979.txt Node

Date: Thu Jun 03 14:10:42 CEST 2021
User: mabdelazizm
Spectrometer: FLMS18565
Trigger mode: 0
Integration Time (sec): 2.000000E0
Scans to average: 1
Electric dark correction enabled: true
Nonlinearity correction enabled: false
Boxcar width: 12
XAxis mode: Wavelengths
Number of Pixels in Spectrum: 2048
>>>>>Begin Spectral Data<<<<<
179.071	97.72
179.452	120.79
179.833	114.5
180.214	120.81
180.595	125.56
180.977	139.95
181.358	140.49
181.739	101.93
182.12	96.48
182.501	79.13
182.882	64.22
183.262	78.39
183.643	60.74
184.024	53.25
184.405	32.25
184.786	18.15
185.166	18.53
185.547	1.58
185.927	-1.26
186.308	7.03
186.689	15.75
187.069	19.2
187.449	25.66
187.83	12.68
188.21	11.11
188.59	4.52
188.971	5.3
189.351	2.07
189.731	-1.35
190.111	-0.6
190.491	-7.09
190.871	-6.72
191.251	-0.55
191.631	-2.04
192.011	0.32
192.391	4.96
192.771	4.62
193.151	3.69
193.531	1.47
193.91	-0.13
194.29	-0.25
194.67	0.1
195.049	2.12
195.429	1.02
195.808	-0.58
196.188	-3.37
196.567	-5.8
196.946	-5.68
197.326	-3.47
197.705	-3.57
198.084	0.48
198.464	-1.27
198.843	-0.29
199.222	-0.89
199.601	0.82
199.98	1.63
200.359	2.82
200.738	2
201.117	2.69
201.496	1.51
201.875	-0.93
202.254	-0.7
202.632	-1.63
203.011	-0.92
203.39	1.15
203.768	2.91
204.147	2.15
204.525	1.2
204.904	1.54
205.282	1.85
205.661	1.14
206.039	2.11
206.418	1.5
206.796	3.89
207.174	3.45
207.552	1.12
207.931	-1.11
208.309	-1.29
208.687	-1.16
209.065	-0.45
209.443	-0.51
209.821	-1.39
210.199	-2.08
210.577	-2.08
210.954	-0.78
211.332	-1.59
211.71	-4.32
212.088	-2.76
212.465	-3
212.843	-4.49
213.221	-6.03
213.598	-4.7
213.976	-4.77
214.353	-4.66
214.731	-4.98
215.108	-3.54
215.485	-3.84
215.863	-4.73
216.24	-5.31
216.617	-3.69
216.994	-3.87
217.371	-3.5
217.749	-4.95
218.126	-4.49
218.503	-4.97
218.88	-4.27
219.256	-3.05
219.633	-3.36
220.01	-3
220.387	-2.1
220.764	-1.93
221.14	-0.56
221.517	-0.58
221.894	-0.37
222.27	-0.16
222.647	0.15
223.023	-0.67
223.4	-0.72
223.776	-0.42
224.153	0.11
224.529	0.04
224.905	0.38
225.282	0.67
225.658	0.63
226.034	0.58
226.41	1.27
226.786	1.71
227.162	2.13
227.538	2.06
227.914	1.96
228.29	2.27
228.666	2.1
229.042	2.34
229.418	2.4
229.793	2.26
230.169	2.41
230.545	2.23
230.92	2.35
231.296	2.38
231.672	2.38
232.047	2.34
232.422	2.65
232.798	2.65
233.173	2.55
233.549	2.46
233.924	2.49
234.299	2.44
234.674	2.32
235.05	2.34
235.425	2.44
235.8	2.36
236.175	2.36
236.55	2.37
236.925	2.29
237.3	2.35
237.675	2.28
238.049	2.33
238.424	2.41
238.799	2.47
239.174	2.45
239.548	2.46
239.923	2.57
240.297	2.44
240.672	2.49
241.046	2.58
241.421	2.66
241.795	2.63
242.17	2.68
242.544	2.69
242.918	2.72
243.293	2.76
243.667	2.73
244.041	2.79
244.415	2.75
244.789	2.63
245.163	2.59
245.537	2.54
245.911	2.5
246.285	2.55
246.659	2.5
247.033	2.51
247.406	2.46
247.78	2.46
248.154	2.42
248.528	2.38
248.901	2.44
249.275	2.42
249.648	2.46
250.022	2.43
250.395	2.39
250.769	2.37
251.142	2.38
251.515	2.35
251.888	2.37
252.262	2.34
252.635	2.31
253.008	2.28
253.381	2.35
253.754	2.39
254.127	2.44
254.5	2.43
254.873	2.46
255.246	2.54
255.619	2.56
255.992	2.59
256.364	2.57
256.737	2.6
257.11	2.54
257.483	2.52
257.855	2.55
258.228	2.53
258.6	2.51
258.973	2.51
259.345	2.52
259.718	2.49
260.09	2.49
260.462	2.51
260.834	2.51
261.207	2.48
261.579	2.48
261.951	2.47
262.323	2.48
262.695	2.43
263.067	2.45
263.439	2.47
263.811	2.44
264.183	2.41
264.555	2.41
264.927	2.39
265.298	2.39
265.67	2.39
266.042	2.42
266.413	2.44
266.785	2.44
267.156	2.46
267.528	2.46
267.899	2.52
268.271	2.51
268.642	2.48
269.013	2.47
269.385	2.45
269.756	2.37
270.127	2.33
270.498	2.33
270.87	2.32
271.241	2.36
271.612	2.38
271.983	2.38
272.354	2.34
272.724	2.33
273.095	2.36
273.466	2.34
273.837	2.3
274.208	2.31
274.578	2.33
274.949	2.36
275.32	2.31
275.69	2.3
276.061	2.28
276.431	2.29
276.802	2.24
277.172	2.19
277.542	2.17
277.913	2.17
278.283	2.17
278.653	2.13
279.023	2.2
279.394	2.18
279.764	2.14
280.134	2.11
280.504	2.08
280.874	2.07
281.244	2.06
281.614	2.06
281.983	2.09
282.353	2.09
282.723	2.08
283.093	2.03
283.462	1.96
283.832	1.94
284.202	1.94
284.571	1.96
284.941	1.98
285.31	1.97
285.68	1.92
286.049	1.95
286.418	1.94
286.788	1.99
287.157	1.94
287.526	1.98
287.895	2.02
288.264	1.98
288.633	2
289.002	2.01
289.371	2.04
289.74	2.01
290.109	1.98
290.478	1.98
290.847	1.97
291.216	1.89
291.585	1.9
291.953	1.89
292.322	1.93
292.691	1.97
293.059	1.91
293.428	1.86
293.796	1.79
294.165	1.77
294.533	1.81
294.901	1.79
295.27	1.81
295.638	1.83
296.006	1.7
296.374	1.74
296.743	1.68
297.111	1.63
297.479	1.61
297.847	1.62
298.215	1.6
298.583	1.61
298.95	1.6
299.318	1.64
299.686	1.61
300.054	1.63
300.422	1.67
300.789	1.66
301.157	1.69
301.525	1.69
301.892	1.64
302.26	1.71
302.627	1.76
302.994	1.77
303.362	1.78
303.729	1.76
304.097	1.75
304.464	1.68
304.831	1.68
305.198	1.69
305.565	1.68
305.932	1.73
306.299	1.7
306.666	1.69
307.033	1.69
307.4	1.74
307.767	1.7
308.134	1.64
308.501	1.59
308.867	1.59
309.234	1.55
309.601	1.52
309.967	1.5
310.334	1.55
310.701	1.53
311.067	1.52
311.433	1.46
311.8	1.41
312.166	1.4
312.533	1.38
312.899	1.37
313.265	1.35
313.631	1.36
313.997	1.31
314.363	1.32
314.729	1.33
315.096	1.3
315.461	1.35
315.827	1.37
316.193	1.37
316.559	1.3
316.925	1.3
317.291	1.33
317.656	1.36
318.022	1.39
318.388	1.42
318.753	1.39
319.119	1.35
319.484	1.3
319.85	1.29
320.215	1.34
320.581	1.32
320.946	1.33
321.311	1.27
321.676	1.32
322.042	1.33
322.407	1.34
322.772	1.33
323.137	1.38
323.502	1.37
323.867	1.35
324.232	1.32
324.597	1.33
324.962	1.32
325.327	1.3
325.691	1.37
326.056	1.38
326.421	1.43
326.785	1.39
327.15	1.38
327.514	1.31
327.879	1.34
328.243	1.4
328.608	1.43
328.972	1.46
329.337	1.48
329.701	1.57
330.065	1.63
330.429	1.71
330.794	1.61
331.158	1.57
331.522	1.53
331.886	1.58
332.25	1.57
332.614	1.61
332.978	1.61
333.342	1.57
333.705	1.52
334.069	1.47
334.433	1.51
334.797	1.49
335.16	1.49
335.524	1.46
335.887	1.49
336.251	1.46
336.614	1.51
336.978	1.5
337.341	1.48
337.705	1.42
338.068	1.46
338.431	1.44
338.794	1.37
339.158	1.24
339.521	1.23
339.884	1.28
340.247	1.34
340.61	1.35
340.973	1.28
341.336	1.24
341.699	1.15
342.062	1.14
342.424	1.16
342.787	1.21
343.15	1.23
343.512	1.17
343.875	1.18
344.238	1.19
344.6	1.2
344.963	1.16
345.325	1.22
345.688	1.15
346.05	1.17
346.412	1.17
346.775	1.17
347.137	1.13
347.499	1.08
347.861	1.09
348.223	1.14
348.585	1.15
348.947	1.14
349.309	1.07
349.671	1.12
350.033	1.18
350.395	1.17
350.757	1.26
351.118	1.31
351.48	1.39
351.842	1.32
352.203	1.33
352.565	1.44
352.927	1.46
353.288	1.43
353.65	1.45
354.011	1.47
354.372	1.47
354.734	1.46
355.095	1.46
355.456	1.48
355.817	1.43
356.179	1.4
356.54	1.46
356.901	1.41
357.262	1.36
357.623	1.4
357.984	1.45
358.345	1.52
358.705	1.39
359.066	1.36
359.427	1.43
359.788	1.4
360.148	1.39
360.509	1.32
360.87	1.35
361.23	1.29
361.591	1.24
361.951	1.18
362.312	1.19
362.672	1.19
363.032	1.24
363.393	1.16
363.753	1.21
364.113	1.19
364.473	1.16
364.833	1.2
365.193	1.18
365.553	1.16
365.913	1.17
366.273	1.19
366.633	1.15
366.993	1.03
367.353	0.98
367.713	1.01
368.072	0.98
368.432	0.96
368.792	0.93
369.151	0.88
369.511	0.91
369.87	0.91
370.23	0.94
370.589	0.98
370.949	1.02
371.308	1.01
371.667	0.93
372.027	0.87
372.386	0.95
372.745	0.94
373.104	0.92
373.463	0.94
373.822	0.99
374.181	1.02
374.54	1.01
374.899	1.06
375.258	1.06
375.617	0.99
375.975	1.08
376.334	1.1
376.693	1.24
377.052	1.32
377.41	1.27
377.769	1.32
378.127	1.3
378.486	1.38
378.844	1.35
379.202	1.35
379.561	1.34
379.919	1.29
380.277	1.29
380.636	1.3
380.994	1.27
381.352	1.24
381.71	1.26
382.068	1.36
382.426	1.33
382.784	1.27
383.142	1.29
383.5	1.31
383.857	1.38
384.215	1.43
384.573	1.44
384.931	1.38
385.288	1.35
385.646	1.26
386.003	1.22
386.361	1.29
386.718	1.32
387.076	1.34
387.433	1.32
387.791	1.34
388.148	1.43
388.505	1.36
388.862	1.41
389.22	1.44
389.577	1.51
389.934	1.63
390.291	1.64
390.648	1.65
391.005	1.63
391.362	1.64
391.718	1.74
392.075	1.79
392.432	1.73
392.789	1.71
393.145	1.69
393.502	1.81
393.859	1.82
394.215	1.85
394.572	1.92
394.928	1.97
395.285	1.93
395.641	1.99
395.997	2.1
396.354	2.05
396.71	2.07
397.066	2.07
397.422	2.13
397.778	2.14
398.134	2.17
398.491	2.25
398.846	2.23
399.202	2.33
399.558	2.36
399.914	2.42
400.27	2.56
400.626	2.6
400.981	2.69
401.337	2.86
401.693	2.92
402.048	3.02
402.404	3.11
402.759	3.25
403.115	3.46
403.47	3.55
403.826	3.64
404.181	3.79
404.536	3.81
404.892	3.91
405.247	4.06
405.602	4.32
405.957	4.46
406.312	4.5
406.667	4.67
407.022	4.89
407.377	5.06
407.732	5.26
408.087	5.43
408.442	5.64
408.796	5.88
409.151	6.05
409.506	6.2
409.86	6.37
410.215	6.54
410.57	6.75
410.924	6.96
411.279	7.21
411.633	7.51
411.987	7.65
412.342	7.94
412.696	8.2
413.05	8.5
413.404	8.83
413.758	9.16
414.113	9.49
414.467	9.65
414.821	9.89
415.175	10.4
415.529	10.78
415.882	11.11
416.236	11.34
416.59	11.67
416.944	12.02
417.298	12.35
417.651	12.68
418.005	13.05
418.358	13.49
418.712	13.85
419.065	14.33
419.419	14.72
419.772	15.22
420.126	15.57
420.479	15.92
420.832	16.35
421.185	16.72
421.539	17.15
421.892	17.54
422.245	17.93
422.598	18.32
422.951	18.77
423.304	19.18
423.657	19.67
424.01	20.05
424.363	20.42
424.715	20.85
425.068	21.43
425.421	21.84
425.773	22.25
426.126	22.77
426.479	23.11
426.831	23.53
427.184	23.95
427.536	24.27
427.889	24.62
428.241	24.97
428.593	25.29
428.945	25.66
429.298	25.99
429.65	26.37
430.002	26.72
430.354	27.04
430.706	27.34
431.058	27.56
431.41	27.84
431.762	28.15
432.114	28.49
432.466	28.73
432.817	29.03
433.169	29.4
433.521	29.61
433.872	29.76
434.224	30.02
434.576	30.21
434.927	30.28
435.279	30.54
435.63	30.68
435.981	30.88
436.333	31.17
436.684	31.22
437.035	31.4
437.387	31.43
437.738	31.58
438.089	31.77
438.44	31.86
438.791	32.14
439.142	32.31
439.493	32.59
439.844	32.72
440.195	32.81
440.545	32.88
440.896	33.05
441.247	33.2
441.598	33.29
441.948	33.34
442.299	33.51
442.649	33.61
443	33.78
443.35	33.91
443.701	34.06
444.051	34.11
444.401	34.17
444.752	34.18
445.102	34.21
445.452	34.27
445.802	34.45
446.152	34.56
446.502	34.63
446.852	34.68
447.202	34.76
447.552	34.7
447.902	34.74
448.252	34.7
448.602	35.32
448.952	35.38
449.301	35.43
449.651	35.47
450.001	35.5
450.35	35.45
450.7	35.4
451.049	35.36
451.399	35.42
451.748	35.41
452.097	35.3
452.447	35.27
452.796	35.41
453.145	35.44
453.494	35.35
453.843	35.35
454.193	35.48
454.542	35.48
454.891	35.53
455.239	35.4
455.588	35.34
455.937	35.37
456.286	35.36
456.635	35.32
456.984	35.25
457.332	34.66
457.681	34.54
458.03	34.38
458.378	34.27
458.727	34.15
459.075	34.25
459.423	34.44
459.772	34.35
460.12	34.28
460.468	34.14
460.817	34.15
461.165	34.1
461.513	33.91
461.861	33.98
462.209	33.91
462.557	33.75
462.905	33.58
463.253	33.37
463.601	33.37
463.949	33.28
464.297	33.2
464.644	33.01
464.992	32.84
465.34	32.82
465.687	32.71
466.035	32.6
466.383	32.64
466.73	32.52
467.078	32.46
467.425	32.39
467.772	32.23
468.12	32.05
468.467	31.9
468.814	31.78
469.161	31.73
469.508	31.57
469.856	31.48
470.203	31.43
470.55	31.21
470.897	31.13
471.243	31.09
471.59	31.04
471.937	30.94
472.284	30.79
472.631	30.76
472.977	30.61
473.324	30.51
473.671	30.43
474.017	30.14
474.364	30.07
474.71	29.98
475.057	29.78
475.403	29.75
475.749	29.53
476.096	29.47
476.442	29.28
476.788	29.14
477.134	28.95
477.48	28.78
477.826	28.58
478.172	28.51
478.518	28.37
478.864	28.14
479.21	27.98
479.556	27.85
479.902	27.7
480.248	27.62
480.593	27.51
480.939	27.33
481.285	27.1
481.63	27.03
481.976	26.88
482.321	26.72
482.667	26.67
483.012	26.52
483.357	26.4
483.703	26.33
484.048	26.23
484.393	26.15
484.738	26.01
485.084	25.87
485.429	25.69
485.774	25.73
486.119	25.65
486.464	25.52
486.808	25.39
487.153	25.27
487.498	25.18
487.843	25.07
488.188	24.92
488.532	24.72
488.877	24.51
489.222	24.36
489.566	24.2
489.911	24.11
490.255	23.92
490.6	23.77
490.944	23.61
491.288	23.37
491.633	23.17
491.977	23.09
492.321	22.9
492.665	22.65
493.009	22.54
493.353	22.36
493.697	22.19
494.041	22.13
494.385	22.02
494.729	21.86
495.073	21.73
495.417	21.52
495.76	21.38
496.104	21.13
496.448	20.96
496.791	20.97
497.135	20.89
497.479	20.72
497.822	20.59
498.165	20.45
498.509	20.38
498.852	20.26
499.196	20.14
499.539	20.05
499.882	20
500.225	19.95
500.568	19.85
500.911	19.74
501.254	19.8
501.597	19.69
501.94	19.58
502.283	19.56
502.626	19.4
502.969	19.25
503.312	19.19
503.654	19.15
503.997	19.1
504.34	18.97
504.682	18.96
505.025	18.87
505.367	18.63
505.71	18.52
506.052	18.44
506.395	18.37
506.737	18.26
507.079	18.11
507.421	18.03
507.764	17.88
508.106	17.71
508.448	17.65
508.79	17.48
509.132	17.36
509.474	17.26
509.816	17.02
510.158	16.9
510.499	16.88
510.841	16.85
511.183	16.75
511.525	16.58
511.866	16.48
512.208	16.35
512.549	16.32
512.891	16.2
513.232	16.15
513.574	16.09
513.915	16.04
514.256	15.93
514.598	15.82
514.939	15.77
515.28	15.65
515.621	15.54
515.962	15.53
516.303	15.55
516.644	15.5
516.985	15.4
517.326	15.34
517.667	15.21
518.008	15.16
518.349	15.09
518.69	14.98
519.03	14.86
519.371	14.71
519.712	14.66
520.052	14.63
520.393	14.51
520.733	14.44
521.074	14.27
521.414	14.27
521.754	14.21
522.095	14.13
522.435	14.07
522.775	14
523.115	13.96
523.455	13.83
523.795	13.88
524.135	13.91
524.475	13.7
524.815	13.61
525.155	13.56
525.495	13.43
525.835	13.4
526.175	13.31
526.514	13.27
526.854	13.24
527.194	13.23
527.533	13.12
527.873	13.09
528.212	13.03
528.552	13.06
528.891	13.07
529.23	13.02
529.57	13.03
529.909	12.96
530.248	12.98
530.587	12.97
530.927	12.85
531.266	12.76
531.605	12.78
531.944	12.66
532.283	12.53
532.621	12.4
532.96	12.41
533.299	12.31
533.638	12.31
533.977	12.3
534.315	12.22
534.654	12.23
534.992	12.15
535.331	12.13
535.67	12.02
536.008	11.98
536.346	11.96
536.685	11.84
537.023	11.63
537.361	11.47
537.7	11.38
538.038	11.39
538.376	11.33
538.714	11.21
539.052	11.08
539.39	11.22
539.728	11.28
540.066	11.18
540.404	11.2
540.741	11.13
541.079	11.2
541.417	11.16
541.755	11.13
542.092	11.07
542.43	11.04
542.767	11.04
543.105	10.97
543.442	11
543.78	10.92
544.117	10.98
544.454	10.99
544.792	10.87
545.129	10.96
545.466	11.08
545.803	11.21
546.14	11.25
546.477	11.12
546.814	11.14
547.151	11.17
547.488	11.2
547.825	11.07
548.162	10.99
548.499	10.83
548.835	10.76
549.172	10.76
549.509	10.7
549.845	10.6
550.182	10.63
550.518	10.53
550.855	10.55
551.191	10.61
551.528	10.65
551.864	10.66
552.2	10.87
552.537	10.86
552.873	10.75
553.209	10.79
553.545	10.65
553.881	10.64
554.217	10.53
554.553	10.48
554.889	10.55
555.225	10.63
555.561	10.57
555.896	10.59
556.232	10.6
556.568	10.73
556.903	10.91
557.239	10.84
557.575	10.89
557.91	10.91
558.245	11.11
558.581	11.15
558.916	11.27
559.252	11.38
559.587	11.28
559.922	11.32
560.257	11.3
560.592	11.22
560.928	11.21
561.263	11.33
561.598	11.3
561.933	11.3
562.267	11.45
562.602	11.62
562.937	11.72
563.272	11.75
563.607	11.62
563.941	11.77
564.276	11.79
564.611	11.8
564.945	11.75
565.28	11.72
565.614	11.84
565.949	11.9
566.283	11.89
566.617	11.95
566.951	12
567.286	12.03
567.62	11.97
567.954	12.03
568.288	12.03
568.622	12.03
568.956	12.04
569.29	12.08
569.624	12.07
569.958	12.17
570.292	12.36
570.626	12.34
570.959	12.36
571.293	12.39
571.627	12.41
571.96	12.51
572.294	12.49
572.627	12.57
572.961	12.6
573.294	12.62
573.627	12.74
573.961	12.82
574.294	12.91
574.627	13.05
574.961	13.02
575.294	13.07
575.627	13.1
575.96	13.11
576.293	13.12
576.626	13.2
576.959	13.31
577.292	13.37
577.624	13.46
577.957	13.6
578.29	13.69
578.623	13.67
578.955	13.66
579.288	13.76
579.62	13.82
579.953	13.92
580.285	13.96
580.618	14.08
580.95	14.09
581.282	14.22
581.615	14.31
581.947	14.3
582.279	14.4
582.611	14.42
582.943	14.44
583.275	14.39
583.607	14.56
583.939	14.63
584.271	14.72
584.603	14.88
584.935	14.88
585.267	14.85
585.598	14.85
585.93	14.85
586.262	14.88
586.593	14.89
586.925	15.02
587.256	15.23
587.588	15.26
587.919	15.38
588.25	15.47
588.582	15.59
588.913	15.65
589.244	15.79
589.575	15.87
589.907	15.93
590.238	16.13
590.569	16.24
590.9	16.28
591.231	16.39
591.562	16.6
591.892	16.67
592.223	16.91
592.554	17.11
592.885	17.26
593.215	17.43
593.546	17.56
593.877	17.64
594.207	17.66
594.538	17.74
594.868	17.86
595.198	17.91
595.529	17.92
595.859	18.06
596.189	18.1
596.52	18.23
596.85	18.27
597.18	18.36
597.51	18.44
597.84	18.52
598.17	18.68
598.5	18.72
598.83	18.84
599.16	19.06
599.489	19.2
599.819	19.43
600.149	19.42
600.479	19.5
600.808	19.67
601.138	19.74
601.467	19.85
601.797	20
602.126	20.21
602.456	20.48
602.785	20.63
603.114	20.79
603.443	20.96
603.773	21.25
604.102	21.35
604.431	21.53
604.76	21.65
605.089	21.9
605.418	22.04
605.747	22.24
606.076	22.4
606.405	22.48
606.733	22.72
607.062	22.8
607.391	23.06
607.72	23.24
608.048	23.49
608.377	23.86
608.705	24.1
609.034	24.33
609.362	24.63
609.69	24.8
610.019	25.08
610.347	25.28
610.675	25.5
611.004	25.77
611.332	25.93
611.66	26.22
611.988	26.21
612.316	26.39
612.644	26.51
612.972	26.68
613.3	26.61
613.627	26.9
613.955	27.19
614.283	27.48
614.611	27.87
614.938	28
615.266	28.36
615.593	28.58
615.921	28.71
616.248	28.97
616.576	29.09
616.903	29.18
617.23	29.48
617.558	29.97
617.885	30.35
618.212	30.71
618.539	31.15
618.866	31.36
619.193	31.42
619.52	31.8
619.847	31.81
620.174	32
620.501	32.12
620.828	32.24
621.155	32.27
621.481	32.63
621.808	32.73
622.135	32.86
622.461	32.86
622.788	32.83
623.114	33.1
623.441	32.98
623.767	32.98
624.093	33.31
624.42	33.27
624.746	33.64
625.072	33.86
625.398	34.04
625.725	33.76
626.051	33.88
626.377	33.97
626.703	33.83
627.029	34.04
627.354	34.63
627.68	34.57
628.006	35.18
628.332	35.65
628.658	36.23
628.983	36.42
629.309	36.95
629.634	37.34
629.96	37.33
630.285	37.52
630.611	37.56
630.936	37.78
631.262	37.99
631.587	38.41
631.912	38.65
632.237	38.37
632.562	38.81
632.887	38.78
633.213	39.55
633.538	39.97
633.863	40.39
634.187	40.44
634.512	40.57
634.837	40.65
635.162	40.69
635.487	40.7
635.811	40.81
636.136	40.51
636.461	40.65
636.785	40.58
637.11	40.99
637.434	41.01
637.758	41.57
638.083	42.08
638.407	42.27
638.731	42.99
639.056	43.09
639.38	43.16
639.704	43.13
640.028	43.54
640.352	44.42
640.676	44.6
641	45
641.324	44.8
641.648	44.46
641.972	44.29
642.295	44.99
642.619	45.02
642.943	45.65
643.266	45.59
643.59	45.5
643.913	46.15
644.237	46.36
644.56	46.05
644.884	46.11
645.207	45.71
645.53	45.8
645.854	45.67
646.177	45.7
646.5	45.86
646.823	45.92
647.146	46.32
647.469	46.61
647.792	47.13
648.115	46.77
648.438	47.43
648.761	49.27
649.084	50.9
649.406	51.04
649.729	50.51
650.052	50.04
650.374	49.76
650.697	49.82
651.019	49.72
651.342	49.88
651.664	49.97
651.987	49.8
652.309	49.82
652.631	50.07
652.953	50.33
653.276	50.58
653.598	50.58
653.92	50.57
654.242	50.52
654.564	50.32
654.886	50.32
655.208	50.37
655.53	50.3
655.851	50.04
656.173	50.12
656.495	49.86
656.816	49.08
657.138	47.8
657.46	46.96
657.781	46.85
658.103	47.73
658.424	48.37
658.746	48.8
659.067	48.84
