Data from T1_Reflection__141__15-19-14-848.txt Node

Date: Thu Jun 03 15:19:14 CEST 2021
User: mabdelazizm
Spectrometer: FLMS18565
Trigger mode: 0
Integration Time (sec): 2.000000E0
Scans to average: 1
Electric dark correction enabled: true
Nonlinearity correction enabled: false
Boxcar width: 12
XAxis mode: Wavelengths
Number of Pixels in Spectrum: 2048
>>>>>Begin Spectral Data<<<<<
179.071	-32.28
179.452	16.93
179.833	6.81
180.214	28.9
180.595	16.78
180.977	29.45
181.358	14.5
181.739	9.14
182.12	2.61
182.501	-17.92
182.882	-16.25
183.262	-15.08
183.643	10.43
184.024	15.76
184.405	15.71
184.786	12.41
185.166	16.46
185.547	15.82
185.927	10.49
186.308	12.95
186.689	17.19
187.069	18.26
187.449	19.8
187.83	17.62
188.21	20.8
188.59	20.38
188.971	16.89
189.351	20.06
189.731	16.93
190.111	16.39
190.491	13.75
190.871	14.7
191.251	18.79
191.631	19.91
192.011	20.8
192.391	21.86
192.771	21.9
193.151	17.46
193.531	16.47
193.91	16.13
194.29	16.19
194.67	16.21
195.049	15.77
195.429	15.46
195.808	12.76
196.188	10.61
196.567	8.66
196.946	8.92
197.326	9.76
197.705	8.69
198.084	11.49
198.464	9.4
198.843	9.7
199.222	8.71
199.601	9.59
199.98	9.57
200.359	11.26
200.738	9.42
201.117	8.55
201.496	7.38
201.875	5.91
202.254	4.56
202.632	5.72
203.011	6.67
203.39	9.02
203.768	10.29
204.147	9.26
204.525	8.31
204.904	9.17
205.282	9.91
205.661	9.82
206.039	11.61
206.418	11.02
206.796	10.55
207.174	11.3
207.552	9.33
207.931	7
208.309	6.32
208.687	6.21
209.065	6.68
209.443	6.73
209.821	5.54
210.199	5.2
210.577	5.31
210.954	6.73
211.332	6.4
211.71	5.38
212.088	5.43
212.465	4.49
212.843	1.83
213.221	0.8
213.598	1.98
213.976	3.01
214.353	2
214.731	3.05
215.108	4
215.485	1.95
215.863	1.72
216.24	1.84
216.617	1.49
216.994	2.26
217.371	3.8
217.749	2.99
218.126	2.95
218.503	2.85
218.88	3.48
219.256	4.37
219.633	4.14
220.01	3.79
220.387	4.02
220.764	3.68
221.14	4.04
221.517	4.07
221.894	4.56
222.27	5.59
222.647	5.4
223.023	5.44
223.4	5.15
223.776	5.15
224.153	5.15
224.529	4.82
224.905	5.81
225.282	5.94
225.658	5.72
226.034	5.76
226.41	5.88
226.786	6.22
227.162	6.26
227.538	6.04
227.914	5.9
228.29	5.74
228.666	5.32
229.042	5.34
229.418	5.42
229.793	5.2
230.169	5.39
230.545	5.47
230.92	5.6
231.296	5.3
231.672	5.06
232.047	5.11
232.422	5.07
232.798	5.17
233.173	5.18
233.549	4.96
233.924	5.05
234.299	4.91
234.674	4.82
235.05	4.72
235.425	4.68
235.8	4.66
236.175	4.52
236.55	4.55
236.925	4.44
237.3	4.35
237.675	4.33
238.049	4.4
238.424	4.45
238.799	4.44
239.174	4.45
239.548	4.38
239.923	4.4
240.297	4.31
240.672	4.43
241.046	4.45
241.421	4.45
241.795	4.48
242.17	4.47
242.544	4.49
242.918	4.58
243.293	4.64
243.667	4.6
244.041	4.65
244.415	4.64
244.789	4.55
245.163	4.46
245.537	4.46
245.911	4.44
246.285	4.48
246.659	4.48
247.033	4.47
247.406	4.45
247.78	4.38
248.154	4.33
248.528	4.3
248.901	4.28
249.275	4.26
249.648	4.23
250.022	4.21
250.395	4.16
250.769	4.1
251.142	4.05
251.515	4.02
251.888	4.02
252.262	3.92
252.635	3.78
253.008	3.75
253.381	3.7
253.754	3.71
254.127	3.81
254.5	3.81
254.873	3.79
255.246	3.8
255.619	3.82
255.992	3.82
256.364	3.79
256.737	3.72
257.11	3.74
257.483	3.76
257.855	3.73
258.228	3.75
258.6	3.71
258.973	3.73
259.345	3.69
259.718	3.67
260.09	3.67
260.462	3.67
260.834	3.63
261.207	3.58
261.579	3.65
261.951	3.6
262.323	3.57
262.695	3.53
263.067	3.58
263.439	3.53
263.811	3.46
264.183	3.42
264.555	3.42
264.927	3.43
265.298	3.4
265.67	3.37
266.042	3.41
266.413	3.37
266.785	3.36
267.156	3.35
267.528	3.35
267.899	3.37
268.271	3.32
268.642	3.3
269.013	3.29
269.385	3.32
269.756	3.27
270.127	3.26
270.498	3.2
270.87	3.11
271.241	3.18
271.612	3.2
271.983	3.22
272.354	3.14
272.724	3.13
273.095	3.18
273.466	3.23
273.837	3.18
274.208	3.14
274.578	3.16
274.949	3.2
275.32	3.18
275.69	3.15
276.061	3.13
276.431	3.11
276.802	3.08
277.172	3.08
277.542	3.13
277.913	3.1
278.283	3.09
278.653	3
279.023	3.06
279.394	3.07
279.764	3.09
280.134	3.06
280.504	3.05
280.874	3.02
281.244	3
281.614	2.99
281.983	3.01
282.353	2.98
282.723	2.92
283.093	2.88
283.462	2.88
283.832	2.85
284.202	2.86
284.571	2.86
284.941	2.85
285.31	2.79
285.68	2.79
286.049	2.78
286.418	2.72
286.788	2.79
287.157	2.76
287.526	2.78
287.895	2.84
288.264	2.79
288.633	2.79
289.002	2.75
289.371	2.78
289.74	2.73
290.109	2.72
290.478	2.66
290.847	2.68
291.216	2.63
291.585	2.63
291.953	2.63
292.322	2.68
292.691	2.66
293.059	2.64
293.428	2.6
293.796	2.58
294.165	2.59
294.533	2.62
294.901	2.63
295.27	2.61
295.638	2.6
296.006	2.48
296.374	2.47
296.743	2.43
297.111	2.36
297.479	2.3
297.847	2.27
298.215	2.23
298.583	2.28
298.95	2.29
299.318	2.32
299.686	2.35
300.054	2.37
300.422	2.35
300.789	2.36
301.157	2.35
301.525	2.3
301.892	2.32
302.26	2.35
302.627	2.36
302.994	2.31
303.362	2.35
303.729	2.31
304.097	2.29
304.464	2.26
304.831	2.33
305.198	2.31
305.565	2.34
305.932	2.31
306.299	2.36
306.666	2.37
307.033	2.37
307.4	2.49
307.767	2.41
308.134	2.45
308.501	2.44
308.867	2.42
309.234	2.38
309.601	2.36
309.967	2.38
310.334	2.38
310.701	2.34
311.067	2.29
311.433	2.27
311.8	2.26
312.166	2.31
312.533	2.26
312.899	2.28
313.265	2.27
313.631	2.32
313.997	2.24
314.363	2.29
314.729	2.28
315.096	2.29
315.461	2.31
315.827	2.34
316.193	2.33
316.559	2.25
316.925	2.29
317.291	2.23
317.656	2.2
318.022	2.24
318.388	2.26
318.753	2.29
319.119	2.22
319.484	2.25
319.85	2.27
320.215	2.28
320.581	2.23
320.946	2.2
321.311	2.18
321.676	2.24
322.042	2.25
322.407	2.31
322.772	2.27
323.137	2.34
323.502	2.33
323.867	2.32
324.232	2.32
324.597	2.31
324.962	2.29
325.327	2.27
325.691	2.31
326.056	2.31
326.421	2.35
326.785	2.38
327.15	2.33
327.514	2.29
327.879	2.28
328.243	2.3
328.608	2.29
328.972	2.32
329.337	2.31
329.701	2.43
330.065	2.47
330.429	2.46
330.794	2.36
331.158	2.3
331.522	2.26
331.886	2.27
332.25	2.26
332.614	2.27
332.978	2.23
333.342	2.25
333.705	2.2
334.069	2.18
334.433	2.24
334.797	2.19
335.16	2.16
335.524	2.18
335.887	2.17
336.251	2.16
336.614	2.2
336.978	2.18
337.341	2.16
337.705	2.12
338.068	2.2
338.431	2.2
338.794	2.16
339.158	2.08
339.521	2.05
339.884	2.1
340.247	2.15
340.61	2.12
340.973	2.11
341.336	2.09
341.699	2.03
342.062	2.03
342.424	1.95
342.787	1.95
343.15	1.98
343.512	1.96
343.875	1.96
344.238	1.99
344.6	1.98
344.963	1.95
345.325	1.98
345.688	1.94
346.05	1.89
346.412	1.94
346.775	1.99
347.137	1.85
347.499	1.87
347.861	1.89
348.223	1.92
348.585	1.94
348.947	1.92
349.309	1.88
349.671	1.9
350.033	1.9
350.395	1.83
350.757	1.91
351.118	1.97
351.48	2.09
351.842	2.02
352.203	2.02
352.565	2.01
352.927	2.07
353.288	2.06
353.65	2.05
354.011	2.06
354.372	2.03
354.734	2.06
355.095	2.14
355.456	2.17
355.817	2.11
356.179	2.17
356.54	2.2
356.901	2.09
357.262	2.05
357.623	2.11
357.984	2.17
358.345	2.21
358.705	2.18
359.066	2.18
359.427	2.26
359.788	2.23
360.148	2.2
360.509	2.16
360.87	2.24
361.23	2.18
361.591	2.19
361.951	2.16
362.312	2.2
362.672	2.16
363.032	2.2
363.393	2.23
363.753	2.21
364.113	2.16
364.473	2.16
364.833	2.22
365.193	2.23
365.553	2.23
365.913	2.23
366.273	2.23
366.633	2.13
366.993	2.07
367.353	2.04
367.713	2.08
368.072	2.03
368.432	2.01
368.792	1.98
369.151	2
369.511	1.99
369.87	2.11
370.23	2.13
370.589	2.11
370.949	2.09
371.308	2.05
371.667	2.12
372.027	2.06
372.386	2.06
372.745	2.06
373.104	2.07
373.463	2.06
373.822	1.97
374.181	1.86
374.54	1.85
374.899	1.92
375.258	1.93
375.617	1.91
375.975	1.96
376.334	2
376.693	2.13
377.052	2.21
377.41	2.19
377.769	2.2
378.127	2.2
378.486	2.22
378.844	2.09
379.202	2.11
379.561	2.11
379.919	2.12
380.277	2.09
380.636	2.07
380.994	2.13
381.352	2.11
381.71	2.16
382.068	2.22
382.426	2.18
382.784	2.15
383.142	2.24
383.5	2.28
383.857	2.3
384.215	2.4
384.573	2.5
384.931	2.47
385.288	2.46
385.646	2.35
386.003	2.28
386.361	2.34
386.718	2.4
387.076	2.4
387.433	2.43
387.791	2.42
388.148	2.48
388.505	2.5
388.862	2.51
389.22	2.6
389.577	2.63
389.934	2.62
390.291	2.63
390.648	2.64
391.005	2.68
391.362	2.73
391.718	2.82
392.075	2.87
392.432	2.82
392.789	2.82
393.145	2.84
393.502	2.84
393.859	2.91
394.215	2.92
394.572	2.99
394.928	3.09
395.285	3.11
395.641	3.12
395.997	3.27
396.354	3.28
396.71	3.35
397.066	3.44
397.422	3.54
397.778	3.63
398.134	3.72
398.491	3.82
398.846	3.95
399.202	4.12
399.558	4.16
399.914	4.23
400.27	4.36
400.626	4.51
400.981	4.59
401.337	4.76
401.693	4.93
402.048	5.09
402.404	5.29
402.759	5.41
403.115	5.71
403.47	5.88
403.826	6.08
404.181	6.27
404.536	6.47
404.892	6.56
405.247	6.75
405.602	7.07
405.957	7.25
406.312	7.38
406.667	7.59
407.022	7.86
407.377	8.12
407.732	8.36
408.087	8.56
408.442	8.98
408.796	9.29
409.151	9.55
409.506	9.78
409.86	10.06
410.215	10.45
410.57	10.66
410.924	10.86
411.279	11.18
411.633	11.5
411.987	11.77
412.342	12.12
412.696	12.44
413.05	12.85
413.404	13.15
413.758	13.66
414.113	14.1
414.467	14.42
414.821	14.75
415.175	15.25
415.529	15.6
415.882	15.95
416.236	16.25
416.59	16.81
416.944	17.34
417.298	17.72
417.651	18.14
418.005	18.71
418.358	19.21
418.712	19.76
419.065	20.19
419.419	20.73
419.772	21.26
420.126	21.7
420.479	22.22
420.832	22.61
421.185	23.03
421.539	23.52
421.892	23.96
422.245	24.43
422.598	24.78
422.951	25.31
423.304	25.77
423.657	26.23
424.01	26.73
424.363	27.3
424.715	27.8
425.068	28.43
425.421	28.87
425.773	29.33
426.126	29.88
426.479	30.31
426.831	30.63
427.184	31.05
427.536	31.4
427.889	31.84
428.241	32.24
428.593	32.74
428.945	33.18
429.298	33.59
429.65	34.02
430.002	34.4
430.354	34.8
430.706	35.2
431.058	35.49
431.41	35.95
431.762	36.25
432.114	36.71
432.466	37.08
432.817	37.4
433.169	37.9
433.521	38.32
433.872	38.56
434.224	38.69
434.576	38.9
434.927	39.11
435.279	39.47
435.63	39.77
435.981	40.07
436.333	40.42
436.684	40.58
437.035	40.97
437.387	41.1
437.738	41.38
438.089	41.64
438.44	41.86
438.791	42.09
439.142	42.31
439.493	42.56
439.844	42.82
440.195	43.05
440.545	43.23
440.896	43.34
441.247	43.6
441.598	43.84
441.948	43.86
442.299	44.01
442.649	44.25
443	44.54
443.35	44.77
443.701	44.9
444.051	44.96
444.401	45.15
444.752	45.28
445.102	45.35
445.452	45.55
445.802	45.66
446.152	45.75
446.502	45.94
446.852	46.07
447.202	46.02
447.552	46.26
447.902	46.38
448.252	46.49
448.602	46.21
448.952	46.18
449.301	46.35
449.651	46.48
450.001	46.54
450.35	46.68
450.7	46.72
451.049	46.76
451.399	46.9
451.748	47
452.097	47
452.447	47.07
452.796	47.25
453.145	47.17
453.494	47.22
453.843	47.33
454.193	47.41
454.542	47.37
454.891	47.5
455.239	47.37
455.588	47.36
455.937	47.53
456.286	47.56
456.635	47.63
456.984	47.54
457.332	48.09
457.681	48.19
458.03	48.12
458.378	48.07
458.727	48.14
459.075	47.91
459.423	48.24
459.772	48.3
460.12	48.14
460.468	47.99
460.817	48.09
461.165	48.05
461.513	47.86
461.861	48.01
462.209	47.95
462.557	47.75
462.905	47.52
463.253	47.41
463.601	47.39
463.949	47.29
464.297	47.22
464.644	47.21
464.992	47.02
465.34	46.79
465.687	46.88
466.035	46.65
466.383	46.57
466.73	46.4
467.078	46.4
467.425	46.31
467.772	46.36
468.12	45.95
468.467	45.61
468.814	45.66
469.161	45.55
469.508	45.28
469.856	45.12
470.203	45.11
470.55	44.95
470.897	44.79
471.243	44.77
471.59	44.84
471.937	44.7
472.284	44.57
472.631	44.39
472.977	44.35
473.324	44.26
473.671	44.15
474.017	43.98
474.364	43.71
474.71	43.66
475.057	43.63
475.403	43.54
475.749	43.31
476.096	43.07
476.442	42.78
476.788	42.86
477.134	42.79
477.48	42.61
477.826	42.53
478.172	42.54
478.518	42.46
478.864	42.31
479.21	42.24
479.556	42.08
479.902	41.99
480.248	41.82
480.593	41.71
480.939	41.5
481.285	41.46
481.63	41.25
481.976	41.03
482.321	40.87
482.667	40.83
483.012	40.71
483.357	40.56
483.703	40.34
484.048	40.32
484.393	40.27
484.738	40.29
485.084	40.27
485.429	40.05
485.774	40.03
486.119	39.96
486.464	39.89
486.808	39.68
487.153	39.59
487.498	39.44
487.843	39.31
488.188	39.27
488.532	39.14
488.877	38.98
489.222	38.85
489.566	38.88
489.911	38.79
490.255	38.7
490.6	38.55
490.944	38.44
491.288	38.34
491.633	38.29
491.977	38.3
492.321	38.19
492.665	37.94
493.009	37.82
493.353	37.64
493.697	37.5
494.041	37.38
494.385	37.3
494.729	37.13
495.073	36.96
495.417	36.85
495.76	36.67
496.104	36.56
496.448	36.41
496.791	36.3
497.135	36.18
497.479	36.03
497.822	35.98
498.165	35.69
498.509	35.51
498.852	35.36
499.196	35.35
499.539	35.25
499.882	35.11
500.225	35.01
500.568	34.92
500.911	34.78
501.254	34.71
501.597	34.57
501.94	34.43
502.283	34.37
502.626	34.26
502.969	34.12
503.312	34
503.654	33.99
503.997	33.88
504.34	33.71
504.682	33.62
505.025	33.48
505.367	33.31
505.71	33.17
506.052	33.06
506.395	32.97
506.737	32.96
507.079	32.83
507.421	32.72
507.764	32.56
508.106	32.46
508.448	32.29
508.79	32.15
509.132	32
509.474	31.99
509.816	31.96
510.158	31.83
510.499	31.8
510.841	31.59
511.183	31.44
511.525	31.31
511.866	31.33
512.208	31.09
512.549	30.97
512.891	30.92
513.232	30.83
513.574	30.75
513.915	30.71
514.256	30.6
514.598	30.53
514.939	30.45
515.28	30.31
515.621	30.18
515.962	30.12
516.303	30.13
516.644	30.01
516.985	30.02
517.326	29.83
517.667	29.73
518.008	29.59
518.349	29.45
518.69	29.37
519.03	29.22
519.371	29.17
519.712	29.08
520.052	28.83
520.393	28.61
520.733	28.62
521.074	28.54
521.414	28.5
521.754	28.46
522.095	28.4
522.435	28.37
522.775	28.31
523.115	28.19
523.455	28.01
523.795	28.04
524.135	28.02
524.475	27.84
524.815	27.62
525.155	27.5
525.495	27.35
525.835	27.37
526.175	27.23
526.514	27.14
526.854	26.97
527.194	26.88
527.533	26.82
527.873	26.75
528.212	26.72
528.552	26.79
528.891	26.77
529.23	26.69
529.57	26.69
529.909	26.65
530.248	26.55
530.587	26.59
530.927	26.44
531.266	26.3
531.605	26.31
531.944	26.17
532.283	25.91
532.621	25.83
532.96	25.94
533.299	25.8
533.638	25.81
533.977	25.7
534.315	25.68
534.654	25.61
534.992	25.53
535.331	25.48
535.67	25.37
536.008	25.26
536.346	25.29
536.685	25.3
537.023	25.26
537.361	25.12
537.7	24.96
538.038	24.86
538.376	24.79
538.714	24.84
539.052	24.65
539.39	24.73
539.728	24.68
540.066	24.51
540.404	24.49
540.741	24.53
541.079	24.52
541.417	24.43
541.755	24.53
542.092	24.46
542.43	24.58
542.767	24.47
543.105	24.49
543.442	24.53
543.78	24.48
544.117	24.55
544.454	24.58
544.792	24.54
545.129	24.56
545.466	24.59
545.803	24.56
546.14	24.57
546.477	24.55
546.814	24.63
547.151	24.49
547.488	24.53
547.825	24.3
548.162	24.34
548.499	24.39
548.835	24.51
549.172	24.48
549.509	24.44
549.845	24.36
550.182	24.37
550.518	24.35
550.855	24.3
551.191	24.27
551.528	24.24
551.864	24.18
552.2	24.22
552.537	24.2
552.873	24.26
553.209	24.14
553.545	24.07
553.881	23.97
554.217	24.02
554.553	23.98
554.889	24.07
555.225	23.97
555.561	23.92
555.896	23.82
556.232	23.9
556.568	23.91
556.903	24.16
557.239	24.09
557.575	24.25
557.91	24.41
558.245	24.66
558.581	24.52
558.916	24.63
559.252	24.79
559.587	24.84
559.922	24.86
560.257	24.81
560.592	24.92
560.928	24.93
561.263	24.96
561.598	25.08
561.933	25.12
562.267	25.42
562.602	25.48
562.937	25.67
563.272	25.72
563.607	25.76
563.941	25.87
564.276	26.15
564.611	26.17
564.945	26.23
565.28	26.07
565.614	26.06
565.949	26.07
566.283	25.94
566.617	25.94
566.951	26.08
567.286	26.16
567.62	26.04
567.954	26.11
568.288	26.24
568.622	26.35
568.956	26.28
569.29	26.3
569.624	26.26
569.958	26.33
570.292	26.35
570.626	26.24
570.959	26.3
571.293	26.29
571.627	26.3
571.96	26.46
572.294	26.52
572.627	26.47
572.961	26.49
573.294	26.49
573.627	26.59
573.961	26.72
574.294	26.77
574.627	26.96
574.961	26.98
575.294	27.05
575.627	26.99
575.96	27.05
576.293	27.07
576.626	27.09
576.959	27.15
577.292	27.26
577.624	27.29
577.957	27.45
578.29	27.57
578.623	27.68
578.955	27.78
579.288	27.79
579.62	27.94
579.953	28.02
580.285	27.98
580.618	28.09
580.95	28.2
581.282	28.38
581.615	28.48
581.947	28.5
582.279	28.55
582.611	28.58
582.943	28.58
583.275	28.65
583.607	28.83
583.939	28.92
584.271	29.13
584.603	29.27
584.935	29.34
585.267	29.36
585.598	29.43
585.93	29.57
586.262	29.56
586.593	29.54
586.925	29.59
587.256	29.69
587.588	29.86
587.919	29.86
588.25	30.11
588.582	30.24
588.913	30.29
589.244	30.24
589.575	30.29
589.907	30.37
590.238	30.49
590.569	30.57
590.9	30.61
591.231	30.75
591.562	30.84
591.892	30.86
592.223	31.17
592.554	31.39
592.885	31.57
593.215	31.64
593.546	31.67
593.877	31.8
594.207	31.85
594.538	31.97
594.868	32.14
595.198	32.23
595.529	32.32
595.859	32.43
596.189	32.54
596.52	32.61
596.85	32.71
597.18	32.93
597.51	33.16
597.84	33.31
598.17	33.54
598.5	33.66
598.83	33.99
599.16	34.23
599.489	34.31
599.819	34.5
600.149	34.69
600.479	34.93
600.808	34.9
601.138	34.98
601.467	35.15
601.797	35.5
602.126	35.71
602.456	36.04
602.785	36.25
603.114	36.41
603.443	36.7
603.773	36.9
604.102	37.13
604.431	37.35
604.76	37.48
605.089	37.67
605.418	37.75
605.747	37.97
606.076	38.13
606.405	38.32
606.733	38.57
607.062	38.71
607.391	38.97
607.72	39.27
608.048	39.41
608.377	39.64
608.705	39.74
609.034	40.07
609.362	40.31
609.69	40.61
610.019	40.8
610.347	41.05
610.675	41.28
611.004	41.47
611.332	41.74
611.66	41.97
611.988	42.09
612.316	42.12
612.644	42.32
612.972	42.53
613.3	42.58
613.627	42.65
613.955	42.77
614.283	43
614.611	43.3
614.938	43.31
615.266	43.51
615.593	43.61
615.921	43.73
616.248	44.03
616.576	44.2
616.903	44.36
617.23	44.48
617.558	45.04
617.885	45.2
618.212	45.39
618.539	45.56
618.866	45.61
619.193	45.83
619.52	45.98
619.847	46.26
620.174	46.61
620.501	46.97
620.828	46.93
621.155	46.8
621.481	47.17
621.808	47.46
622.135	47.67
622.461	47.96
622.788	47.96
623.114	48.24
623.441	48.04
623.767	48.17
624.093	48.42
624.42	48.53
624.746	48.88
625.072	49.04
625.398	49.3
625.725	49.28
626.051	49.61
626.377	50.22
626.703	50.41
627.029	50.7
627.354	50.96
627.68	51.27
628.006	51.05
628.332	50.93
628.658	51.24
628.983	51.4
629.309	51.88
629.634	51.96
629.96	52.02
630.285	52.06
630.611	51.83
630.936	51.79
631.262	51.98
631.587	52.55
631.912	52.72
632.237	52.82
632.562	52.99
632.887	53.17
633.213	53.76
633.538	53.93
633.863	53.7
634.187	53.62
634.512	52.84
634.837	52.93
635.162	52.72
635.487	52.67
635.811	52.72
636.136	52.8
636.461	53.31
636.785	53.18
637.11	53.89
637.434	54.1
637.758	54.39
638.083	54.92
638.407	55.42
638.731	55.95
639.056	56.27
639.38	56.07
639.704	55.66
640.028	56.38
640.352	56.66
640.676	56.89
641	56.61
641.324	56.47
641.648	56.12
641.972	56.68
642.295	57.33
642.619	57.89
642.943	58.11
643.266	57.99
643.59	58.39
643.913	58.46
644.237	58.79
644.56	58.41
644.884	58.08
645.207	57.88
645.53	58
645.854	58.5
646.177	57.91
646.5	57.44
646.823	57.31
647.146	57.48
647.469	57.97
647.792	58.65
648.115	57.96
648.438	58.97
648.761	60.86
649.084	61.38
649.406	60.98
649.729	59.97
650.052	59.34
650.374	59.11
650.697	59.07
651.019	59.07
651.342	59.27
651.664	59.2
651.987	59.08
652.309	58.92
652.631	59.07
652.953	59.3
653.276	59.11
653.598	59.05
653.92	58.92
654.242	59.2
654.564	59.3
654.886	59.17
655.208	58.98
655.53	58.97
655.851	58.6
656.173	58.59
656.495	58.22
656.816	57.28
657.138	56.33
657.46	55.29
657.781	55.51
658.103	56.17
658.424	56.46
658.746	56.43
659.067	55.87
659.388	55.41
659.709	55.17
