Data from T1_Reflection__151__15-29-16-829.txt Node

Date: Thu Jun 03 15:29:16 CEST 2021
User: mabdelazizm
Spectrometer: FLMS18565
Trigger mode: 0
Integration Time (sec): 2.000000E0
Scans to average: 1
Electric dark correction enabled: true
Nonlinearity correction enabled: false
Boxcar width: 12
XAxis mode: Wavelengths
Number of Pixels in Spectrum: 2048
>>>>>Begin Spectral Data<<<<<
179.071	131.89
179.452	151.83
179.833	124.55
180.214	130.06
180.595	135.36
180.977	128.54
181.358	123.76
181.739	103.69
182.12	100.22
182.501	98.58
182.882	104.58
183.262	104.52
183.643	79.85
184.024	62.26
184.405	43.97
184.786	30.95
185.166	25.38
185.547	12.22
185.927	3.03
186.308	8.34
186.689	25.42
187.069	28.49
187.449	30.25
187.83	21.84
188.21	17.12
188.59	15.16
188.971	13.45
189.351	16.19
189.731	11.63
190.111	11.38
190.491	10.8
190.871	15.26
191.251	21.9
191.631	20.26
192.011	21.27
192.391	22.68
192.771	23.64
193.151	21.04
193.531	21.48
193.91	20.72
194.29	18.97
194.67	20.05
195.049	20.25
195.429	20.09
195.808	18.18
196.188	13.41
196.567	12.14
196.946	10.73
197.326	12.6
197.705	14.48
198.084	13.88
198.464	11.43
198.843	12.03
199.222	12.23
199.601	14.38
199.98	13.03
200.359	11.58
200.738	7.9
201.117	9.04
201.496	7.2
201.875	6.08
202.254	4.81
202.632	6.15
203.011	5.2
203.39	6.91
203.768	8.16
204.147	6.74
204.525	6.75
204.904	6.68
205.282	7.13
205.661	7.6
206.039	9.18
206.418	8.96
206.796	10.51
207.174	10.62
207.552	10.8
207.931	9.51
208.309	8.5
208.687	7.57
209.065	7.01
209.443	8.55
209.821	8.44
210.199	9.01
210.577	7.94
210.954	9.65
211.332	8.95
211.71	6.73
212.088	6.82
212.465	5.96
212.843	3.51
213.221	3.57
213.598	5.05
213.976	5.45
214.353	6.02
214.731	5.66
215.108	5.74
215.485	4.74
215.863	3.61
216.24	2.55
216.617	3.14
216.994	2.87
217.371	3.75
217.749	3.04
218.126	3.79
218.503	3.88
218.88	3.5
219.256	3.88
219.633	2.9
220.01	2.76
220.387	3.16
220.764	3.15
221.14	4.21
221.517	4.06
221.894	4.29
222.27	4.87
222.647	4.7
223.023	4.02
223.4	3.87
223.776	3.24
224.153	3.47
224.529	3.44
224.905	3.7
225.282	4.36
225.658	4.32
226.034	3.89
226.41	4.33
226.786	4.58
227.162	4.47
227.538	4.05
227.914	3.75
228.29	3.92
228.666	3.67
229.042	4.11
229.418	4.24
229.793	4.1
230.169	4.06
230.545	3.9
230.92	3.97
231.296	3.81
231.672	3.68
232.047	3.62
232.422	3.66
232.798	3.6
233.173	3.72
233.549	3.43
233.924	3.37
234.299	3.27
234.674	3.03
235.05	2.91
235.425	2.91
235.8	2.83
236.175	2.72
236.55	2.76
236.925	2.76
237.3	2.79
237.675	2.74
238.049	2.8
238.424	2.73
238.799	2.71
239.174	2.7
239.548	2.67
239.923	2.72
240.297	2.54
240.672	2.68
241.046	2.69
241.421	2.71
241.795	2.69
242.17	2.71
242.544	2.71
242.918	2.87
243.293	2.87
243.667	2.88
244.041	2.96
244.415	2.99
244.789	2.93
245.163	2.85
245.537	2.84
245.911	2.78
246.285	2.77
246.659	2.76
247.033	2.71
247.406	2.62
247.78	2.6
248.154	2.58
248.528	2.55
248.901	2.56
249.275	2.53
249.648	2.56
250.022	2.51
250.395	2.46
250.769	2.41
251.142	2.41
251.515	2.37
251.888	2.32
252.262	2.19
252.635	2.14
253.008	2.03
253.381	2
253.754	2.04
254.127	2.04
254.5	2.04
254.873	2.05
255.246	2.11
255.619	2.12
255.992	2.09
256.364	2.09
256.737	2.09
257.11	2.07
257.483	2.04
257.855	2.03
258.228	2.04
258.6	2.03
258.973	2.06
259.345	2.02
259.718	2
260.09	1.98
260.462	2.01
260.834	1.97
261.207	1.96
261.579	1.98
261.951	1.96
262.323	1.99
262.695	1.97
263.067	1.92
263.439	1.93
263.811	1.89
264.183	1.88
264.555	1.9
264.927	1.92
265.298	1.95
265.67	1.91
266.042	1.95
266.413	1.92
266.785	1.96
267.156	1.97
267.528	1.98
267.899	2.01
268.271	2
268.642	1.99
269.013	2
269.385	2.02
269.756	1.93
270.127	1.98
270.498	1.97
270.87	1.92
271.241	1.97
271.612	1.99
271.983	1.98
272.354	1.96
272.724	1.96
273.095	2.02
273.466	2.01
273.837	1.95
274.208	1.93
274.578	1.9
274.949	1.94
275.32	1.94
275.69	1.9
276.061	1.84
276.431	1.79
276.802	1.79
277.172	1.77
277.542	1.72
277.913	1.71
278.283	1.72
278.653	1.72
279.023	1.79
279.394	1.79
279.764	1.76
280.134	1.78
280.504	1.77
280.874	1.78
281.244	1.75
281.614	1.78
281.983	1.84
282.353	1.77
282.723	1.76
283.093	1.74
283.462	1.68
283.832	1.7
284.202	1.7
284.571	1.72
284.941	1.78
285.31	1.77
285.68	1.79
286.049	1.77
286.418	1.73
286.788	1.82
287.157	1.78
287.526	1.79
287.895	1.75
288.264	1.72
288.633	1.66
289.002	1.64
289.371	1.67
289.74	1.65
290.109	1.61
290.478	1.58
290.847	1.53
291.216	1.47
291.585	1.48
291.953	1.43
292.322	1.46
292.691	1.53
293.059	1.47
293.428	1.46
293.796	1.38
294.165	1.35
294.533	1.38
294.901	1.37
295.27	1.35
295.638	1.31
296.006	1.19
296.374	1.27
296.743	1.24
297.111	1.25
297.479	1.21
297.847	1.24
298.215	1.26
298.583	1.27
298.95	1.29
299.318	1.34
299.686	1.36
300.054	1.38
300.422	1.35
300.789	1.39
301.157	1.43
301.525	1.37
301.892	1.34
302.26	1.38
302.627	1.37
302.994	1.43
303.362	1.46
303.729	1.46
304.097	1.45
304.464	1.46
304.831	1.52
305.198	1.54
305.565	1.48
305.932	1.5
306.299	1.46
306.666	1.46
307.033	1.53
307.4	1.59
307.767	1.54
308.134	1.52
308.501	1.52
308.867	1.53
309.234	1.51
309.601	1.5
309.967	1.48
310.334	1.49
310.701	1.53
311.067	1.48
311.433	1.44
311.8	1.43
312.166	1.39
312.533	1.39
312.899	1.38
313.265	1.41
313.631	1.39
313.997	1.35
314.363	1.37
314.729	1.41
315.096	1.38
315.461	1.43
315.827	1.47
316.193	1.41
316.559	1.35
316.925	1.35
317.291	1.34
317.656	1.26
318.022	1.3
318.388	1.34
318.753	1.27
319.119	1.23
319.484	1.27
319.85	1.31
320.215	1.34
320.581	1.3
320.946	1.32
321.311	1.29
321.676	1.29
322.042	1.28
322.407	1.26
322.772	1.23
323.137	1.27
323.502	1.27
323.867	1.22
324.232	1.3
324.597	1.3
324.962	1.22
325.327	1.16
325.691	1.23
326.056	1.26
326.421	1.28
326.785	1.3
327.15	1.3
327.514	1.25
327.879	1.37
328.243	1.39
328.608	1.35
328.972	1.32
329.337	1.34
329.701	1.43
330.065	1.44
330.429	1.49
330.794	1.44
331.158	1.44
331.522	1.39
331.886	1.44
332.25	1.41
332.614	1.41
332.978	1.49
333.342	1.38
333.705	1.33
334.069	1.36
334.433	1.43
334.797	1.37
335.16	1.32
335.524	1.36
335.887	1.4
336.251	1.39
336.614	1.44
336.978	1.39
337.341	1.41
337.705	1.37
338.068	1.43
338.431	1.43
338.794	1.39
339.158	1.34
339.521	1.27
339.884	1.3
340.247	1.33
340.61	1.32
340.973	1.3
341.336	1.27
341.699	1.25
342.062	1.19
342.424	1.19
342.787	1.25
343.15	1.3
343.512	1.25
343.875	1.23
344.238	1.29
344.6	1.27
344.963	1.3
345.325	1.32
345.688	1.25
346.05	1.25
346.412	1.24
346.775	1.25
347.137	1.17
347.499	1.21
347.861	1.26
348.223	1.29
348.585	1.33
348.947	1.31
349.309	1.28
349.671	1.31
350.033	1.32
350.395	1.31
350.757	1.37
351.118	1.44
351.48	1.51
351.842	1.41
352.203	1.38
352.565	1.42
352.927	1.42
353.288	1.38
353.65	1.36
354.011	1.34
354.372	1.32
354.734	1.33
355.095	1.35
355.456	1.38
355.817	1.34
356.179	1.3
356.54	1.29
356.901	1.22
357.262	1.16
357.623	1.25
357.984	1.29
358.345	1.36
358.705	1.41
359.066	1.43
359.427	1.5
359.788	1.47
360.148	1.45
360.509	1.41
360.87	1.5
361.23	1.52
361.591	1.53
361.951	1.58
362.312	1.61
362.672	1.57
363.032	1.62
363.393	1.66
363.753	1.67
364.113	1.67
364.473	1.64
364.833	1.74
365.193	1.79
365.553	1.8
365.913	1.81
366.273	1.84
366.633	1.85
366.993	1.84
367.353	1.81
367.713	1.77
368.072	1.74
368.432	1.69
368.792	1.64
369.151	1.62
369.511	1.66
369.87	1.7
370.23	1.76
370.589	1.75
370.949	1.77
371.308	1.78
371.667	1.9
372.027	1.84
372.386	1.84
372.745	1.9
373.104	1.93
373.463	1.95
373.822	1.89
374.181	1.84
374.54	1.87
374.899	1.96
375.258	1.97
375.617	1.92
375.975	1.97
376.334	2
376.693	2.1
377.052	2.16
377.41	2.23
377.769	2.31
378.127	2.29
378.486	2.35
378.844	2.33
379.202	2.35
379.561	2.43
379.919	2.45
380.277	2.53
380.636	2.54
380.994	2.61
381.352	2.66
381.71	2.74
382.068	2.87
382.426	2.96
382.784	3.09
383.142	3.31
383.5	3.4
383.857	3.53
384.215	3.71
384.573	3.8
384.931	3.88
385.288	3.98
385.646	4.08
386.003	4.25
386.361	4.37
386.718	4.61
387.076	4.87
387.433	5.07
387.791	5.24
388.148	5.51
388.505	5.71
388.862	5.92
389.22	6.15
389.577	6.38
389.934	6.67
390.291	6.96
390.648	7.23
391.005	7.49
391.362	7.74
391.718	8.03
392.075	8.25
392.432	8.51
392.789	8.78
393.145	9.11
393.502	9.52
393.859	9.89
394.215	10.23
394.572	10.61
394.928	10.94
395.285	11.33
395.641	11.69
395.997	12.09
396.354	12.45
396.71	12.94
397.066	13.34
397.422	13.7
397.778	14.19
398.134	14.64
398.491	15.09
398.846	15.54
399.202	16.01
399.558	16.43
399.914	16.89
400.27	17.35
400.626	17.85
400.981	18.39
401.337	18.91
401.693	19.41
402.048	19.97
402.404	20.43
402.759	20.97
403.115	21.61
403.47	22.15
403.826	22.72
404.181	23.29
404.536	23.75
404.892	24.29
405.247	24.86
405.602	25.39
405.957	25.89
406.312	26.44
406.667	26.93
407.022	27.52
407.377	28.06
407.732	28.57
408.087	29.17
408.442	29.76
408.796	30.3
409.151	30.93
409.506	31.48
409.86	32.1
410.215	32.7
410.57	33.28
410.924	33.75
411.279	34.26
411.633	34.75
411.987	35.25
412.342	35.71
412.696	36.27
413.05	36.76
413.404	37.18
413.758	37.61
414.113	38.05
414.467	38.38
414.821	38.65
415.175	39.08
415.529	39.51
415.882	39.89
416.236	40.22
416.59	40.62
416.944	40.96
417.298	41.43
417.651	41.79
418.005	41.98
418.358	42.31
418.712	42.56
419.065	42.78
419.419	42.98
419.772	43.32
420.126	43.67
420.479	43.94
420.832	44.09
421.185	44.35
421.539	44.56
421.892	44.74
422.245	45.01
422.598	45.24
422.951	45.32
423.304	45.58
423.657	45.94
424.01	46.23
424.363	46.45
424.715	46.59
425.068	46.88
425.421	47.04
425.773	47.1
426.126	47.25
426.479	47.37
426.831	47.54
427.184	47.64
427.536	47.68
427.889	47.8
428.241	47.95
428.593	48.07
428.945	48.08
429.298	48.25
429.65	48.42
430.002	48.44
430.354	48.52
430.706	48.64
431.058	48.75
431.41	48.97
431.762	49.15
432.114	49.31
432.466	49.41
432.817	49.43
433.169	49.67
433.521	49.92
433.872	49.91
434.224	49.99
434.576	50.17
434.927	50.09
435.279	50.17
435.63	50.33
435.981	50.38
436.333	50.6
436.684	50.52
437.035	50.62
437.387	50.64
437.738	50.83
438.089	50.79
438.44	50.79
438.791	50.96
439.142	51.08
439.493	51.22
439.844	51.28
440.195	51.14
440.545	51.17
440.896	51.23
441.247	51.22
441.598	51.36
441.948	51.22
442.299	51.15
442.649	51.07
443	51.11
443.35	51.14
443.701	51.18
444.051	51.18
444.401	51.22
444.752	51.3
445.102	51.13
445.452	51.24
445.802	51.23
446.152	51.19
446.502	51.26
446.852	51.24
447.202	51.16
447.552	51.15
447.902	51.12
448.252	50.99
448.602	51.42
448.952	51.39
449.301	51.32
449.651	51.32
450.001	51.44
450.35	51.42
450.7	51.4
451.049	51.33
451.399	51.41
451.748	51.4
452.097	51.25
452.447	51.33
452.796	51.28
453.145	51.26
453.494	51.13
453.843	51.24
454.193	51.23
454.542	51.2
454.891	51.25
455.239	51.15
455.588	51.15
455.937	51.25
456.286	51.29
456.635	51.21
456.984	51.3
457.332	50.87
457.681	50.9
458.03	50.98
458.378	51.04
458.727	50.84
459.075	50.76
459.423	51.01
459.772	51.03
460.12	51.06
460.468	51.03
460.817	51.02
461.165	50.86
461.513	50.83
461.861	50.81
462.209	50.75
462.557	50.7
462.905	50.67
463.253	50.61
463.601	50.39
463.949	50.31
464.297	50.21
464.644	50.18
464.992	50.13
465.34	50.08
465.687	50.03
466.035	49.82
466.383	49.74
466.73	49.56
467.078	49.52
467.425	49.54
467.772	49.52
468.12	49.12
468.467	48.95
468.814	48.93
469.161	48.84
469.508	48.83
469.856	48.83
470.203	48.76
470.55	48.69
470.897	48.69
471.243	48.58
471.59	48.5
471.937	48.5
472.284	48.54
472.631	48.42
472.977	48.47
473.324	48.3
473.671	48.17
474.017	48.02
474.364	47.84
474.71	47.75
475.057	47.75
475.403	47.68
475.749	47.44
476.096	47.23
476.442	46.89
476.788	46.77
477.134	46.71
477.48	46.6
477.826	46.45
478.172	46.42
478.518	46.33
478.864	46.24
479.21	46.03
479.556	45.95
479.902	45.7
480.248	45.59
480.593	45.37
480.939	45.16
481.285	45.03
481.63	44.8
481.976	44.67
482.321	44.54
482.667	44.5
483.012	44.47
483.357	44.42
483.703	44.3
484.048	44.29
484.393	44.18
484.738	44.19
485.084	44.17
485.429	44.11
485.774	44
486.119	43.92
486.464	43.83
486.808	43.61
487.153	43.4
487.498	43.2
487.843	43.16
488.188	42.97
488.532	42.93
488.877	42.82
489.222	42.75
489.566	42.65
489.911	42.5
490.255	42.53
490.6	42.4
490.944	42.2
491.288	42.01
491.633	41.82
491.977	41.67
492.321	41.52
492.665	41.29
493.009	41.14
493.353	40.92
493.697	40.86
494.041	40.72
494.385	40.63
494.729	40.4
495.073	40.3
495.417	40.18
495.76	40.12
496.104	40.07
496.448	39.86
496.791	39.85
497.135	39.71
497.479	39.55
497.822	39.48
498.165	39.44
498.509	39.37
498.852	39.1
499.196	39.05
499.539	38.96
499.882	38.93
500.225	38.78
500.568	38.71
500.911	38.57
501.254	38.48
501.597	38.37
501.94	38.25
502.283	38.14
502.626	38.04
502.969	37.93
503.312	37.88
503.654	37.8
503.997	37.73
504.34	37.63
504.682	37.49
505.025	37.39
505.367	37.14
505.71	37.06
506.052	37.05
506.395	36.95
506.737	36.77
507.079	36.67
507.421	36.58
507.764	36.43
508.106	36.32
508.448	36.12
508.79	35.96
509.132	35.77
509.474	35.65
509.816	35.47
510.158	35.38
510.499	35.34
510.841	35.25
511.183	35.21
511.525	35.03
511.866	34.93
512.208	34.69
512.549	34.57
512.891	34.45
513.232	34.37
513.574	34.37
513.915	34.33
514.256	34.14
514.598	33.96
514.939	33.81
515.28	33.74
515.621	33.53
515.962	33.51
516.303	33.44
516.644	33.33
516.985	33.27
517.326	33.18
517.667	33.13
518.008	33.01
518.349	33.01
518.69	32.92
519.03	32.75
519.371	32.65
519.712	32.53
520.052	32.43
520.393	32.25
520.733	32.26
521.074	32.14
521.414	32.02
521.754	31.95
522.095	31.78
522.435	31.72
522.775	31.73
523.115	31.67
523.455	31.54
523.795	31.45
524.135	31.37
524.475	31.12
524.815	30.97
525.155	30.87
525.495	30.8
525.835	30.7
526.175	30.51
526.514	30.45
526.854	30.36
527.194	30.23
527.533	30.1
527.873	29.9
528.212	29.8
528.552	29.81
528.891	29.83
529.23	29.8
529.57	29.74
529.909	29.64
530.248	29.44
530.587	29.3
530.927	29.16
531.266	28.96
531.605	28.81
531.944	28.71
532.283	28.54
532.621	28.55
532.96	28.62
533.299	28.5
533.638	28.53
533.977	28.41
534.315	28.45
534.654	28.38
534.992	28.35
535.331	28.23
535.67	28.12
536.008	28.19
536.346	28.17
536.685	28.03
537.023	27.89
537.361	27.68
537.7	27.5
538.038	27.41
538.376	27.31
538.714	27.35
539.052	27.28
539.39	27.28
539.728	27.32
540.066	27.22
540.404	27.18
540.741	27.18
541.079	27.08
541.417	26.99
541.755	26.93
542.092	26.75
542.43	26.73
542.767	26.64
543.105	26.75
543.442	26.68
543.78	26.62
544.117	26.6
544.454	26.52
544.792	26.42
545.129	26.42
545.466	26.49
545.803	26.56
546.14	26.46
546.477	26.44
546.814	26.48
547.151	26.42
547.488	26.45
547.825	26.33
548.162	26.3
548.499	26.24
548.835	26.19
549.172	26.16
549.509	26.17
549.845	26.05
550.182	26.04
550.518	25.97
550.855	25.93
551.191	25.97
551.528	25.89
551.864	25.95
552.2	26.08
552.537	26.05
552.873	26.06
553.209	26.04
553.545	25.92
553.881	25.81
554.217	25.65
554.553	25.65
554.889	25.55
555.225	25.63
555.561	25.57
555.896	25.52
556.232	25.52
556.568	25.52
556.903	25.71
557.239	25.67
557.575	25.76
557.91	25.86
558.245	25.88
558.581	25.88
558.916	25.91
559.252	26.03
559.587	25.9
559.922	25.88
560.257	25.8
560.592	25.73
560.928	25.77
561.263	25.79
561.598	25.94
561.933	26.16
562.267	26.46
562.602	26.62
562.937	26.75
563.272	26.93
563.607	26.85
563.941	26.97
564.276	27.02
564.611	27.04
564.945	27.09
565.28	27.04
565.614	27.09
565.949	27.1
566.283	26.99
566.617	27.24
566.951	27.3
567.286	27.37
567.62	27.33
567.954	27.38
568.288	27.47
568.622	27.5
568.956	27.33
569.29	27.32
569.624	27.23
569.958	27.26
570.292	27.24
570.626	27.09
570.959	27.14
571.293	27.18
571.627	27.13
571.96	27.17
572.294	27.19
572.627	27.19
572.961	27.26
573.294	27.24
573.627	27.3
573.961	27.36
574.294	27.36
574.627	27.46
574.961	27.36
575.294	27.35
575.627	27.28
575.96	27.23
576.293	27.27
576.626	27.25
576.959	27.28
577.292	27.42
577.624	27.49
577.957	27.61
578.29	27.63
578.623	27.61
578.955	27.62
579.288	27.63
579.62	27.68
579.953	27.79
580.285	27.77
580.618	27.76
580.95	27.76
581.282	27.81
581.615	27.85
581.947	27.84
582.279	27.87
582.611	27.86
582.943	27.83
583.275	27.87
583.607	27.97
583.939	28.04
584.271	28.06
584.603	28.12
584.935	28.1
585.267	28.09
585.598	28.14
585.93	28.22
586.262	28.17
586.593	28.14
586.925	28.17
587.256	28.34
587.588	28.29
587.919	28.31
588.25	28.42
588.582	28.53
588.913	28.66
589.244	28.83
589.575	28.88
589.907	28.89
590.238	29.13
590.569	29.33
590.9	29.48
591.231	29.6
591.562	29.64
591.892	29.78
592.223	30.12
592.554	30.45
592.885	30.61
593.215	30.74
593.546	30.75
593.877	30.78
594.207	30.72
594.538	30.9
594.868	31.03
595.198	31.21
595.529	31.21
595.859	31.44
596.189	31.54
596.52	31.5
596.85	31.51
597.18	31.59
597.51	31.54
597.84	31.68
598.17	31.88
598.5	31.77
598.83	31.72
599.16	31.97
599.489	32.15
599.819	32.37
600.149	32.46
600.479	32.52
600.808	32.51
601.138	32.6
601.467	32.69
601.797	32.94
602.126	33.13
602.456	33.47
602.785	33.6
603.114	33.86
603.443	34.07
603.773	34.39
604.102	34.63
604.431	34.75
604.76	34.91
605.089	35.24
605.418	35.42
605.747	35.72
606.076	35.75
606.405	35.77
606.733	35.96
607.062	36.12
607.391	36.2
607.72	36.4
608.048	36.65
608.377	36.93
608.705	37.14
609.034	37.38
609.362	37.58
609.69	37.95
610.019	38.19
610.347	38.41
610.675	38.54
611.004	38.74
611.332	38.83
611.66	38.95
611.988	38.99
612.316	38.96
612.644	39.25
612.972	39.49
613.3	39.56
613.627	39.94
613.955	40.3
614.283	40.72
614.611	41.2
614.938	41.38
615.266	41.84
615.593	42.07
615.921	42.25
616.248	42.47
616.576	42.59
616.903	42.77
617.23	42.85
617.558	43.43
617.885	43.71
618.212	44.08
618.539	44.42
618.866	44.83
619.193	44.92
619.52	45.29
619.847	45.56
620.174	45.62
620.501	45.99
620.828	45.94
621.155	45.98
621.481	46.25
621.808	46.12
622.135	46.14
622.461	46.18
622.788	46.32
623.114	46.67
623.441	46.54
623.767	46.66
624.093	46.71
624.42	46.73
624.746	47.22
625.072	47.34
625.398	47.91
625.725	47.66
626.051	47.83
626.377	47.85
626.703	47.97
627.029	48
627.354	48.63
627.68	48.63
628.006	48.56
628.332	48.89
628.658	49.02
628.983	49.18
629.309	49.4
629.634	49.43
629.96	49.5
630.285	49.54
630.611	49.36
630.936	49.08
631.262	49.18
631.587	49.33
631.912	49.68
632.237	49.96
632.562	50.36
632.887	50.35
633.213	50.92
633.538	50.93
633.863	51.24
634.187	51.15
634.512	51.41
634.837	51.85
635.162	51.97
635.487	51.94
635.811	52.02
636.136	52.28
636.461	52.64
636.785	52.85
637.11	53.28
637.434	53.43
637.758	54.04
638.083	54.57
638.407	55.05
638.731	55.77
639.056	56.25
639.38	56.26
639.704	56.66
640.028	57.31
640.352	57.83
640.676	58.29
641	58.2
641.324	58.5
641.648	58.14
641.972	58.07
642.295	58.31
642.619	58.21
642.943	57.98
643.266	57.53
643.59	57.83
643.913	57.98
644.237	58.18
644.56	57.75
644.884	57.32
645.207	57.37
645.53	57.38
645.854	57.49
646.177	57.29
646.5	57.42
646.823	56.87
647.146	57.09
647.469	57.22
647.792	57.64
648.115	56.95
648.438	57.04
648.761	58.7
649.084	59.53
649.406	58.96
649.729	58.32
650.052	57.77
650.374	57.79
650.697	57.94
651.019	57.96
651.342	58.12
651.664	57.93
651.987	57.79
652.309	57.77
652.631	57.8
652.953	58.02
653.276	57.95
653.598	58.11
653.92	58.16
654.242	58.25
654.564	58.05
654.886	58.15
655.208	58.09
655.53	58.16
655.851	57.83
656.173	57.88
656.495	57.88
656.816	56.85
657.138	55.85
657.46	55.66
657.781	56.15
