Data from T1_Reflection__64__14-08-24-983.txt Node

Date: Thu Jun 03 14:08:24 CEST 2021
User: mabdelazizm
Spectrometer: FLMS18565
Trigger mode: 0
Integration Time (sec): 2.000000E0
Scans to average: 1
Electric dark correction enabled: true
Nonlinearity correction enabled: false
Boxcar width: 12
XAxis mode: Wavelengths
Number of Pixels in Spectrum: 2048
>>>>>Begin Spectral Data<<<<<
179.071	-14.64
179.452	10.07
179.833	12.75
180.214	31.79
180.595	18.23
180.977	39.45
181.358	42.55
181.739	30.4
182.12	12.56
182.501	-8.85
182.882	-29.21
183.262	-23.62
183.643	-13.69
184.024	-14.02
184.405	-14.59
184.786	-16.78
185.166	-2.31
185.547	-6.21
185.927	-8.32
186.308	1.78
186.689	6.52
187.069	9.83
187.449	12.75
187.83	0.19
188.21	-3.5
188.59	-8.93
188.971	-12.03
189.351	-8.61
189.731	-7.01
190.111	-4.58
190.491	-7.41
190.871	-5.13
191.251	0.4
191.631	4.21
192.011	5.34
192.391	7.35
192.771	9.65
193.151	9.28
193.531	10.68
193.91	12.86
194.29	13.79
194.67	10.5
195.049	11.08
195.429	9.76
195.808	7.2
196.188	5.08
196.567	4.71
196.946	6.17
197.326	7.75
197.705	11.21
198.084	14.01
198.464	14.04
198.843	13.84
199.222	11.15
199.601	11.83
199.98	12.15
200.359	12.57
200.738	11.87
201.117	10.96
201.496	8.97
201.875	8.33
202.254	7.56
202.632	6.71
203.011	5.57
203.39	6.85
203.768	8.07
204.147	7.91
204.525	8.1
204.904	9.95
205.282	10.39
205.661	10.91
206.039	12.33
206.418	11.19
206.796	13.19
207.174	11.32
207.552	11.04
207.931	9.29
208.309	8.53
208.687	8.24
209.065	8.73
209.443	7.76
209.821	7.59
210.199	6.32
210.577	6.48
210.954	7.91
211.332	9.26
211.71	7.63
212.088	8.33
212.465	7.84
212.843	6.33
213.221	5.54
213.598	6.54
213.976	7.46
214.353	6.04
214.731	7.05
215.108	7.52
215.485	6.61
215.863	5.77
216.24	5.63
216.617	6.79
216.994	6.8
217.371	8.21
217.749	6.43
218.126	7.54
218.503	7.12
218.88	7.78
219.256	7.93
219.633	7.54
220.01	6.46
220.387	7.02
220.764	6.33
221.14	6.58
221.517	6.43
221.894	6.93
222.27	7.06
222.647	6.57
223.023	6.19
223.4	5.02
223.776	5.05
224.153	5.01
224.529	4.68
224.905	5.12
225.282	5.64
225.658	5.33
226.034	4.8
226.41	4.83
226.786	4.96
227.162	5.1
227.538	4.77
227.914	4.67
228.29	4.6
228.666	4.26
229.042	4.25
229.418	4.39
229.793	4.28
230.169	4.29
230.545	4.22
230.92	4.4
231.296	4.26
231.672	4.21
232.047	4.12
232.422	4.08
232.798	4.26
233.173	4.3
233.549	4.08
233.924	4.16
234.299	3.94
234.674	3.84
235.05	3.64
235.425	3.62
235.8	3.63
236.175	3.6
236.55	3.69
236.925	3.66
237.3	3.6
237.675	3.57
238.049	3.67
238.424	3.68
238.799	3.75
239.174	3.65
239.548	3.53
239.923	3.52
240.297	3.44
240.672	3.44
241.046	3.47
241.421	3.57
241.795	3.55
242.17	3.54
242.544	3.51
242.918	3.56
243.293	3.6
243.667	3.54
244.041	3.56
244.415	3.57
244.789	3.58
245.163	3.52
245.537	3.45
245.911	3.41
246.285	3.38
246.659	3.42
247.033	3.41
247.406	3.34
247.78	3.39
248.154	3.34
248.528	3.39
248.901	3.46
249.275	3.5
249.648	3.47
250.022	3.49
250.395	3.43
250.769	3.4
251.142	3.41
251.515	3.38
251.888	3.4
252.262	3.36
252.635	3.26
253.008	3.29
253.381	3.29
253.754	3.32
254.127	3.31
254.5	3.33
254.873	3.4
255.246	3.45
255.619	3.5
255.992	3.48
256.364	3.5
256.737	3.46
257.11	3.43
257.483	3.45
257.855	3.45
258.228	3.4
258.6	3.36
258.973	3.32
259.345	3.32
259.718	3.3
260.09	3.25
260.462	3.31
260.834	3.31
261.207	3.26
261.579	3.29
261.951	3.33
262.323	3.3
262.695	3.25
263.067	3.27
263.439	3.29
263.811	3.28
264.183	3.19
264.555	3.15
264.927	3.1
265.298	3.09
265.67	3.04
266.042	3.09
266.413	3.07
266.785	3.06
267.156	3.04
267.528	3.09
267.899	3.1
268.271	3.12
268.642	3.09
269.013	3.11
269.385	3.14
269.756	3.1
270.127	3.07
270.498	3.05
270.87	3
271.241	3.02
271.612	3.01
271.983	3.03
272.354	2.97
272.724	2.96
273.095	2.94
273.466	3
273.837	2.98
274.208	3
274.578	2.99
274.949	3.02
275.32	3.01
275.69	3.01
276.061	2.93
276.431	2.89
276.802	2.79
277.172	2.8
277.542	2.8
277.913	2.79
278.283	2.76
278.653	2.74
279.023	2.75
279.394	2.75
279.764	2.75
280.134	2.75
280.504	2.71
280.874	2.72
281.244	2.73
281.614	2.77
281.983	2.76
282.353	2.77
282.723	2.67
283.093	2.65
283.462	2.6
283.832	2.59
284.202	2.58
284.571	2.57
284.941	2.58
285.31	2.6
285.68	2.59
286.049	2.61
286.418	2.55
286.788	2.62
287.157	2.58
287.526	2.6
287.895	2.59
288.264	2.57
288.633	2.52
289.002	2.52
289.371	2.52
289.74	2.48
290.109	2.48
290.478	2.46
290.847	2.4
291.216	2.36
291.585	2.31
291.953	2.32
292.322	2.34
292.691	2.37
293.059	2.34
293.428	2.25
293.796	2.2
294.165	2.19
294.533	2.17
294.901	2.2
295.27	2.16
295.638	2.18
296.006	2.04
296.374	2.07
296.743	2.04
297.111	2.03
297.479	1.97
297.847	2.01
298.215	1.95
298.583	1.92
298.95	1.91
299.318	1.92
299.686	1.9
300.054	1.98
300.422	2
300.789	2
301.157	2.04
301.525	2.05
301.892	2
302.26	2.01
302.627	2.07
302.994	2.11
303.362	2.09
303.729	2.12
304.097	2.08
304.464	2.07
304.831	2.09
305.198	2.09
305.565	2.04
305.932	2.02
306.299	2.02
306.666	2
307.033	2.02
307.4	2.13
307.767	2.06
308.134	2.09
308.501	2.06
308.867	2.04
309.234	1.99
309.601	1.98
309.967	1.99
310.334	2
310.701	1.92
311.067	1.89
311.433	1.93
311.8	1.89
312.166	1.84
312.533	1.86
312.899	1.87
313.265	1.86
313.631	1.87
313.997	1.83
314.363	1.87
314.729	1.92
315.096	1.89
315.461	1.9
315.827	1.91
316.193	1.87
316.559	1.77
316.925	1.86
317.291	1.83
317.656	1.8
318.022	1.84
318.388	1.8
318.753	1.73
319.119	1.66
319.484	1.64
319.85	1.65
320.215	1.63
320.581	1.56
320.946	1.61
321.311	1.58
321.676	1.59
322.042	1.56
322.407	1.59
322.772	1.62
323.137	1.67
323.502	1.68
323.867	1.61
324.232	1.63
324.597	1.63
324.962	1.6
325.327	1.57
325.691	1.67
326.056	1.63
326.421	1.62
326.785	1.62
327.15	1.56
327.514	1.56
327.879	1.65
328.243	1.71
328.608	1.71
328.972	1.77
329.337	1.84
329.701	1.92
330.065	1.92
330.429	1.94
330.794	1.87
331.158	1.87
331.522	1.82
331.886	1.81
332.25	1.77
332.614	1.74
332.978	1.78
333.342	1.74
333.705	1.74
334.069	1.76
334.433	1.8
334.797	1.69
335.16	1.68
335.524	1.67
335.887	1.69
336.251	1.67
336.614	1.69
336.978	1.62
337.341	1.63
337.705	1.58
338.068	1.64
338.431	1.62
338.794	1.56
339.158	1.48
339.521	1.44
339.884	1.46
340.247	1.47
340.61	1.44
340.973	1.45
341.336	1.44
341.699	1.4
342.062	1.41
342.424	1.34
342.787	1.31
343.15	1.33
343.512	1.33
343.875	1.36
344.238	1.4
344.6	1.46
344.963	1.47
345.325	1.53
345.688	1.55
346.05	1.52
346.412	1.48
346.775	1.44
347.137	1.32
347.499	1.3
347.861	1.34
348.223	1.33
348.585	1.38
348.947	1.41
349.309	1.34
349.671	1.35
350.033	1.32
350.395	1.27
350.757	1.32
351.118	1.36
351.48	1.45
351.842	1.48
352.203	1.43
352.565	1.45
352.927	1.44
353.288	1.39
353.65	1.35
354.011	1.37
354.372	1.37
354.734	1.3
355.095	1.34
355.456	1.36
355.817	1.39
356.179	1.37
356.54	1.41
356.901	1.36
357.262	1.37
357.623	1.4
357.984	1.35
358.345	1.38
358.705	1.38
359.066	1.36
359.427	1.38
359.788	1.37
360.148	1.35
360.509	1.36
360.87	1.29
361.23	1.27
361.591	1.22
361.951	1.26
362.312	1.3
362.672	1.33
363.032	1.35
363.393	1.36
363.753	1.38
364.113	1.35
364.473	1.39
364.833	1.37
365.193	1.38
365.553	1.4
365.913	1.37
366.273	1.38
366.633	1.39
366.993	1.37
367.353	1.37
367.713	1.36
368.072	1.39
368.432	1.37
368.792	1.36
369.151	1.31
369.511	1.31
369.87	1.42
370.23	1.48
370.589	1.5
370.949	1.45
371.308	1.43
371.667	1.42
372.027	1.33
372.386	1.34
372.745	1.38
373.104	1.39
373.463	1.4
373.822	1.39
374.181	1.41
374.54	1.37
374.899	1.42
375.258	1.38
375.617	1.29
375.975	1.36
376.334	1.36
376.693	1.44
377.052	1.46
377.41	1.52
377.769	1.6
378.127	1.6
378.486	1.61
378.844	1.56
379.202	1.6
379.561	1.6
379.919	1.61
380.277	1.6
380.636	1.62
380.994	1.63
381.352	1.61
381.71	1.61
382.068	1.66
382.426	1.63
382.784	1.63
383.142	1.67
383.5	1.63
383.857	1.73
384.215	1.8
384.573	1.85
384.931	1.81
385.288	1.8
385.646	1.78
386.003	1.75
386.361	1.73
386.718	1.69
387.076	1.73
387.433	1.74
387.791	1.79
388.148	1.83
388.505	1.88
388.862	1.97
389.22	2.08
389.577	2.08
389.934	2.11
390.291	2.13
390.648	2.2
391.005	2.28
391.362	2.35
391.718	2.45
392.075	2.51
392.432	2.66
392.789	2.67
393.145	2.77
393.502	2.88
393.859	3.05
394.215	3.15
394.572	3.21
394.928	3.29
395.285	3.39
395.641	3.49
395.997	3.7
396.354	3.84
396.71	3.99
397.066	4.14
397.422	4.24
397.778	4.38
398.134	4.47
398.491	4.71
398.846	4.92
399.202	5.18
399.558	5.4
399.914	5.57
400.27	5.86
400.626	6.14
400.981	6.39
401.337	6.61
401.693	6.92
402.048	7.24
402.404	7.54
402.759	7.81
403.115	8.22
403.47	8.63
403.826	9.13
404.181	9.5
404.536	9.85
404.892	10.15
405.247	10.44
405.602	10.88
405.957	11.31
406.312	11.7
406.667	12.1
407.022	12.63
407.377	13.04
407.732	13.47
408.087	13.9
408.442	14.4
408.796	14.89
409.151	15.32
409.506	15.8
409.86	16.25
410.215	16.82
410.57	17.3
410.924	17.78
411.279	18.29
411.633	18.81
411.987	19.3
412.342	19.87
412.696	20.25
413.05	20.85
413.404	21.48
413.758	22.13
414.113	22.83
414.467	23.35
414.821	23.78
415.175	24.4
415.529	24.98
415.882	25.61
416.236	26.21
416.59	26.82
416.944	27.33
417.298	27.88
417.651	28.37
418.005	28.89
418.358	29.41
418.712	29.99
419.065	30.45
419.419	30.86
419.772	31.38
420.126	31.8
420.479	32.34
420.832	32.79
421.185	33.19
421.539	33.69
421.892	34.17
422.245	34.54
422.598	34.81
422.951	35.15
423.304	35.54
423.657	36.05
424.01	36.54
424.363	36.97
424.715	37.32
425.068	37.76
425.421	38.18
425.773	38.74
426.126	39.22
426.479	39.61
426.831	40.13
427.184	40.53
427.536	40.84
427.889	41.11
428.241	41.46
428.593	41.83
428.945	42.25
429.298	42.53
429.65	42.88
430.002	43.17
430.354	43.54
430.706	43.72
431.058	43.97
431.41	44.34
431.762	44.66
432.114	44.96
432.466	45.07
432.817	45.27
433.169	45.59
433.521	45.71
433.872	45.84
434.224	45.91
434.576	45.96
434.927	45.94
435.279	46.16
435.63	46.2
435.981	46.28
436.333	46.56
436.684	46.69
437.035	46.89
437.387	46.93
437.738	46.96
438.089	47.08
438.44	47.21
438.791	47.29
439.142	47.35
439.493	47.58
439.844	47.73
440.195	47.75
440.545	47.89
440.896	47.93
441.247	48.17
441.598	48.15
441.948	48.14
442.299	48.36
442.649	48.47
443	48.66
443.35	48.66
443.701	48.81
444.051	48.85
444.401	48.83
444.752	48.99
445.102	48.91
445.452	48.96
445.802	49.02
446.152	49.05
446.502	49.18
446.852	49.22
447.202	49.07
447.552	49.11
447.902	49.11
448.252	48.96
448.602	49.46
448.952	49.62
449.301	49.51
449.651	49.59
450.001	49.48
450.35	49.56
450.7	49.62
451.049	49.51
451.399	49.55
451.748	49.63
452.097	49.53
452.447	49.49
452.796	49.46
453.145	49.46
453.494	49.32
453.843	49.27
454.193	49.37
454.542	49.4
454.891	49.37
455.239	49.25
455.588	49.15
455.937	49.16
456.286	49.21
456.635	49.25
456.984	49.3
457.332	48.79
457.681	48.73
458.03	48.71
458.378	48.66
458.727	48.74
459.075	48.69
459.423	48.68
459.772	48.62
460.12	48.4
460.468	48.21
460.817	48.33
461.165	48.26
461.513	48.1
461.861	48.22
462.209	48.1
462.557	48.02
462.905	47.97
463.253	47.8
463.601	47.74
463.949	47.72
464.297	47.65
464.644	47.58
464.992	47.49
465.34	47.44
465.687	47.36
466.035	47.14
466.383	46.96
466.73	46.75
467.078	46.72
467.425	46.57
467.772	46.5
468.12	46.25
468.467	46.05
468.814	45.93
469.161	45.8
469.508	45.61
469.856	45.53
470.203	45.42
470.55	45.13
470.897	45.02
471.243	45.05
471.59	44.88
471.937	44.71
472.284	44.59
472.631	44.45
472.977	44.24
473.324	44.11
473.671	43.88
474.017	43.56
474.364	43.47
474.71	43.27
475.057	43.16
475.403	43.03
475.749	42.87
476.096	42.56
476.442	42.27
476.788	42.19
477.134	42.12
477.48	42.04
477.826	41.88
478.172	41.75
478.518	41.6
478.864	41.47
479.21	41.37
479.556	41.28
479.902	41.01
480.248	40.87
480.593	40.76
480.939	40.59
481.285	40.38
481.63	40.33
481.976	40.14
482.321	40
482.667	39.94
483.012	39.76
483.357	39.73
483.703	39.51
484.048	39.41
484.393	39.2
484.738	39.22
485.084	39.16
485.429	39.01
485.774	38.9
486.119	38.74
486.464	38.5
486.808	38.35
487.153	38.1
487.498	37.92
487.843	37.67
488.188	37.49
488.532	37.34
488.877	37.06
489.222	36.9
489.566	36.64
489.911	36.42
490.255	36.28
490.6	36.11
490.944	35.94
491.288	35.66
491.633	35.44
491.977	35.22
492.321	35.06
492.665	34.89
493.009	34.72
493.353	34.51
493.697	34.35
494.041	34.18
494.385	34.08
494.729	33.91
495.073	33.84
495.417	33.7
495.76	33.61
496.104	33.49
496.448	33.34
496.791	33.21
497.135	33.02
497.479	32.94
497.822	32.81
498.165	32.74
498.509	32.71
498.852	32.49
499.196	32.4
499.539	32.29
499.882	32.14
500.225	32.12
500.568	31.96
500.911	31.8
501.254	31.65
501.597	31.51
501.94	31.35
502.283	31.17
502.626	31.02
502.969	30.8
503.312	30.68
503.654	30.56
503.997	30.41
504.34	30.25
504.682	30.18
505.025	30.04
505.367	29.81
505.71	29.63
506.052	29.44
506.395	29.33
506.737	29.16
507.079	29.03
507.421	28.89
507.764	28.74
508.106	28.57
508.448	28.51
508.79	28.28
509.132	28.16
509.474	28.03
509.816	27.88
510.158	27.73
510.499	27.55
510.841	27.54
511.183	27.43
511.525	27.29
511.866	27.22
512.208	27.08
512.549	26.96
512.891	26.76
513.232	26.52
513.574	26.44
513.915	26.4
514.256	26.32
514.598	26.21
514.939	26.11
515.28	25.99
515.621	25.8
515.962	25.66
516.303	25.62
516.644	25.46
516.985	25.32
517.326	25.15
517.667	25.03
518.008	25.03
518.349	25.02
518.69	24.95
519.03	24.88
519.371	24.73
519.712	24.62
520.052	24.49
520.393	24.4
520.733	24.31
521.074	24.23
521.414	24.18
521.754	24.2
522.095	24.09
522.435	24
522.775	23.98
523.115	23.9
523.455	23.69
523.795	23.68
524.135	23.56
524.475	23.49
524.815	23.32
525.155	23.29
525.495	23.24
525.835	23.28
526.175	23.17
526.514	23.01
526.854	22.88
527.194	22.76
527.533	22.62
527.873	22.44
528.212	22.32
528.552	22.29
528.891	22.17
529.23	22.13
529.57	22.09
529.909	22.02
530.248	21.79
530.587	21.77
530.927	21.73
531.266	21.51
531.605	21.46
531.944	21.35
532.283	21.16
532.621	21.24
532.96	21.19
533.299	21.11
533.638	21.13
533.977	20.95
534.315	20.89
534.654	20.84
534.992	20.82
535.331	20.71
535.67	20.66
536.008	20.66
536.346	20.71
536.685	20.63
537.023	20.52
537.361	20.24
537.7	20.1
538.038	20.03
538.376	19.98
538.714	19.99
539.052	19.86
539.39	19.73
539.728	19.89
540.066	19.81
540.404	19.72
540.741	19.67
541.079	19.46
541.417	19.3
541.755	19.16
542.092	18.96
542.43	18.94
542.767	18.84
543.105	18.72
543.442	18.64
543.78	18.62
544.117	18.69
544.454	18.58
544.792	18.46
545.129	18.52
545.466	18.53
545.803	18.71
546.14	18.64
546.477	18.5
546.814	18.56
547.151	18.5
547.488	18.44
547.825	18.32
548.162	18.16
548.499	18.12
548.835	18.13
549.172	18.01
549.509	18.03
549.845	18.12
550.182	18.26
550.518	18.22
550.855	18.28
551.191	18.28
551.528	18.44
551.864	18.4
552.2	18.42
552.537	18.34
552.873	18.35
553.209	18.42
553.545	18.24
553.881	18.12
554.217	18.04
554.553	18.05
554.889	18.06
555.225	17.98
555.561	18.03
555.896	18.05
556.232	18.12
556.568	18.11
556.903	18.17
557.239	18.16
557.575	18.33
557.91	18.29
558.245	18.32
558.581	18.21
558.916	18.3
559.252	18.33
559.587	18.34
559.922	18.28
560.257	18.42
560.592	18.47
560.928	18.45
561.263	18.53
561.598	18.44
561.933	18.51
562.267	18.87
562.602	19.02
562.937	19.05
563.272	19.17
563.607	19.14
563.941	19.19
564.276	19.37
564.611	19.4
564.945	19.47
565.28	19.54
565.614	19.55
565.949	19.58
566.283	19.63
566.617	19.7
566.951	19.76
567.286	19.79
567.62	19.79
567.954	19.81
568.288	19.98
568.622	20.04
568.956	20
569.29	20.11
569.624	20.1
569.958	20.23
570.292	20.34
570.626	20.29
570.959	20.37
571.293	20.45
571.627	20.51
571.96	20.69
572.294	20.66
572.627	20.65
572.961	20.71
573.294	20.78
573.627	20.81
573.961	20.91
574.294	20.93
574.627	21.01
574.961	21.02
575.294	21.09
575.627	21.11
575.96	21.18
576.293	21.17
576.626	21.14
576.959	21.19
577.292	21.21
577.624	21.21
577.957	21.35
578.29	21.4
578.623	21.46
578.955	21.46
579.288	21.44
579.62	21.54
579.953	21.57
580.285	21.58
580.618	21.75
580.95	21.78
581.282	21.92
581.615	22
581.947	21.99
582.279	22.09
582.611	22.13
582.943	22.22
583.275	22.2
583.607	22.34
583.939	22.41
584.271	22.5
584.603	22.61
584.935	22.67
585.267	22.58
585.598	22.7
585.93	22.82
586.262	22.74
586.593	22.66
586.925	22.74
587.256	22.85
587.588	22.97
587.919	23.03
588.25	23.21
588.582	23.25
588.913	23.39
589.244	23.46
589.575	23.49
589.907	23.48
590.238	23.7
590.569	23.75
590.9	23.85
591.231	23.85
591.562	24.04
591.892	24.14
592.223	24.44
592.554	24.61
592.885	24.84
593.215	24.99
593.546	25.13
593.877	25.19
594.207	25.2
594.538	25.46
594.868	25.71
595.198	25.79
595.529	25.91
595.859	26.03
596.189	26.11
596.52	26.2
596.85	26.36
597.18	26.41
597.51	26.6
597.84	26.65
598.17	26.8
598.5	26.84
598.83	26.99
599.16	27.28
599.489	27.48
599.819	27.75
600.149	27.77
600.479	27.85
600.808	27.95
601.138	28.1
601.467	28.26
601.797	28.54
602.126	28.74
602.456	29.05
602.785	29.16
603.114	29.4
603.443	29.6
603.773	29.83
604.102	29.99
604.431	30.15
604.76	30.22
605.089	30.39
605.418	30.46
605.747	30.68
606.076	30.88
606.405	31.14
606.733	31.42
607.062	31.61
607.391	31.7
607.72	31.91
608.048	32.16
608.377	32.64
608.705	32.96
609.034	33.24
609.362	33.51
609.69	33.79
610.019	33.98
610.347	34.24
610.675	34.53
611.004	34.87
611.332	34.94
611.66	35.29
611.988	35.47
612.316	35.67
612.644	35.79
612.972	36.02
613.3	36.17
613.627	36.51
613.955	36.66
614.283	36.95
614.611	37.33
614.938	37.51
615.266	37.79
615.593	38.01
615.921	38.47
616.248	38.7
616.576	38.99
616.903	39.02
617.23	39.29
617.558	39.76
617.885	40.14
618.212	40.78
618.539	41.24
618.866	41.44
619.193	41.76
619.52	42.17
619.847	42.37
620.174	42.46
620.501	42.85
620.828	43.22
621.155	43.57
621.481	44.02
621.808	44.2
622.135	44.48
622.461	44.7
622.788	44.73
623.114	45.02
623.441	44.82
623.767	45.25
624.093	45.2
624.42	45.39
624.746	45.59
625.072	46.08
625.398	46.32
625.725	46.47
626.051	46.49
626.377	46.29
626.703	46.31
627.029	46.64
627.354	46.93
627.68	47.05
628.006	47.32
628.332	47.77
628.658	48.09
628.983	48.42
629.309	48.43
629.634	48.5
629.96	48.72
630.285	49
630.611	49.09
630.936	49.41
631.262	49.82
631.587	50.66
631.912	50.99
632.237	51.38
632.562	51.83
632.887	52.41
633.213	53.07
633.538	53.34
633.863	53.35
634.187	53.48
634.512	53.54
634.837	53.67
635.162	53.49
635.487	53.31
635.811	53.45
636.136	53.77
636.461	54.1
636.785	54.43
637.11	54.75
637.434	54.97
637.758	55.48
638.083	56.13
638.407	56.56
638.731	57.15
639.056	57.04
639.38	56.76
639.704	57.01
640.028	57.6
640.352	57.98
640.676	57.95
641	57.35
641.324	57.46
641.648	57.56
641.972	57.68
642.295	58.27
642.619	59.15
642.943	59.41
643.266	59.88
643.59	60
643.913	60.62
644.237	60.6
644.56	60.79
644.884	60.42
645.207	60.48
645.53	60.84
645.854	61.51
646.177	61.5
646.5	61.49
646.823	61.54
647.146	62.1
647.469	62.5
647.792	62.59
648.115	61.91
648.438	62.71
648.761	65.04
649.084	66.13
649.406	65.95
649.729	65.08
650.052	64.75
650.374	64.7
650.697	64.66
651.019	64.87
651.342	64.93
651.664	64.94
651.987	64.75
652.309	64.57
652.631	64.63
652.953	64.77
653.276	64.79
653.598	64.78
653.92	64.61
654.242	64.6
654.564	64.53
654.886	64.55
655.208	64.29
655.53	64.22
655.851	64.03
656.173	64.11
656.495	63.97
656.816	62.95
657.138	61.98
657.46	61.2
657.781	61.18
658.103	61.54
658.424	61.9
658.746	61.72
659.067	61.14
659.388	61.22
