Data from T1_Reflection__61__14-06-46-986.txt Node

Date: Thu Jun 03 14:06:46 CEST 2021
User: mabdelazizm
Spectrometer: FLMS18565
Trigger mode: 0
Integration Time (sec): 2.000000E0
Scans to average: 1
Electric dark correction enabled: true
Nonlinearity correction enabled: false
Boxcar width: 12
XAxis mode: Wavelengths
Number of Pixels in Spectrum: 2048
>>>>>Begin Spectral Data<<<<<
179.071	68.61
179.452	86.83
179.833	84.88
180.214	86.71
180.595	72.98
180.977	75.19
181.358	72.98
181.739	64.15
182.12	51.15
182.501	21.75
182.882	-23.53
183.262	-23.62
183.643	-13.36
184.024	-10.33
184.405	-2.64
184.786	-11.55
185.166	-13.17
185.547	0.22
185.927	7.63
186.308	8.38
186.689	16.3
187.069	22.52
187.449	20.5
187.83	11.98
188.21	10.85
188.59	6.09
188.971	5.66
189.351	6.99
189.731	5.49
190.111	7.18
190.491	5.4
190.871	9.31
191.251	14
191.631	15.8
192.011	16.83
192.391	19.89
192.771	22.81
193.151	21.05
193.531	19.27
193.91	18.55
194.29	19.45
194.67	16.57
195.049	14.04
195.429	11.62
195.808	8.52
196.188	7.36
196.567	5.12
196.946	6.3
197.326	8.59
197.705	8.29
198.084	10.81
198.464	9.16
198.843	9.19
199.222	8.71
199.601	9.82
199.98	11.49
200.359	9.67
200.738	9.14
201.117	7.83
201.496	6.8
201.875	5.91
202.254	5.16
202.632	6.21
203.011	6.72
203.39	7.41
203.768	7.48
204.147	9.22
204.525	9.21
204.904	9.86
205.282	11.59
205.661	10.51
206.039	12.24
206.418	11.13
206.796	12.37
207.174	11.91
207.552	10.53
207.931	9.91
208.309	8.02
208.687	8.56
209.065	9.69
209.443	8.89
209.821	7.97
210.199	6.27
210.577	6.1
210.954	8.53
211.332	8.89
211.71	6.64
212.088	7.3
212.465	7.45
212.843	6.75
213.221	6.98
213.598	6.92
213.976	7.8
214.353	7.19
214.731	6.69
215.108	7.26
215.485	6.26
215.863	4.88
216.24	5.32
216.617	6.27
216.994	6.27
217.371	6.34
217.749	5.64
218.126	5.21
218.503	4.85
218.88	4.83
219.256	6.61
219.633	6.01
220.01	5.52
220.387	5.18
220.764	4.55
221.14	4.51
221.517	3.75
221.894	3.42
222.27	3.65
222.647	3.22
223.023	2.93
223.4	2.38
223.776	2.3
224.153	2.45
224.529	2.47
224.905	2.95
225.282	3.43
225.658	2.97
226.034	2.83
226.41	3.02
226.786	2.97
227.162	3.19
227.538	2.87
227.914	2.69
228.29	2.73
228.666	2.41
229.042	2.56
229.418	2.77
229.793	2.63
230.169	2.87
230.545	2.93
230.92	3.14
231.296	3.1
231.672	2.92
232.047	2.9
232.422	2.87
232.798	2.92
233.173	2.88
233.549	2.67
233.924	2.52
234.299	2.34
234.674	2.23
235.05	2.13
235.425	2.02
235.8	1.84
236.175	1.83
236.55	1.87
236.925	1.86
237.3	1.79
237.675	1.72
238.049	1.73
238.424	1.73
238.799	1.79
239.174	1.75
239.548	1.65
239.923	1.62
240.297	1.47
240.672	1.47
241.046	1.41
241.421	1.45
241.795	1.46
242.17	1.49
242.544	1.5
242.918	1.57
243.293	1.61
243.667	1.55
244.041	1.53
244.415	1.5
244.789	1.49
245.163	1.48
245.537	1.46
245.911	1.35
246.285	1.33
246.659	1.32
247.033	1.36
247.406	1.3
247.78	1.26
248.154	1.19
248.528	1.17
248.901	1.19
249.275	1.21
249.648	1.22
250.022	1.27
250.395	1.26
250.769	1.21
251.142	1.17
251.515	1.14
251.888	1.16
252.262	1.08
252.635	1.01
253.008	1.02
253.381	1.06
253.754	1.12
254.127	1.11
254.5	1.1
254.873	1.13
255.246	1.25
255.619	1.3
255.992	1.28
256.364	1.23
256.737	1.21
257.11	1.22
257.483	1.24
257.855	1.25
258.228	1.21
258.6	1.22
258.973	1.2
259.345	1.15
259.718	1.16
260.09	1.15
260.462	1.21
260.834	1.21
261.207	1.16
261.579	1.19
261.951	1.23
262.323	1.23
262.695	1.23
263.067	1.17
263.439	1.19
263.811	1.21
264.183	1.17
264.555	1.15
264.927	1.11
265.298	1.12
265.67	1.1
266.042	1.11
266.413	1.1
266.785	1.1
267.156	1.13
267.528	1.15
267.899	1.13
268.271	1.15
268.642	1.13
269.013	1.16
269.385	1.17
269.756	1.15
270.127	1.12
270.498	1.11
270.87	1.11
271.241	1.09
271.612	1.13
271.983	1.1
272.354	1.08
272.724	1.06
273.095	1.04
273.466	1.02
273.837	0.95
274.208	0.95
274.578	0.95
274.949	0.96
275.32	0.97
275.69	0.98
276.061	0.94
276.431	0.86
276.802	0.86
277.172	0.88
277.542	0.86
277.913	0.9
278.283	0.86
278.653	0.84
279.023	0.88
279.394	0.88
279.764	0.91
280.134	0.86
280.504	0.89
280.874	0.86
281.244	0.85
281.614	0.86
281.983	0.88
282.353	0.9
282.723	0.91
283.093	0.93
283.462	0.91
283.832	0.95
284.202	0.93
284.571	0.91
284.941	0.92
285.31	0.91
285.68	0.95
286.049	0.95
286.418	0.85
286.788	0.94
287.157	0.87
287.526	0.91
287.895	0.91
288.264	0.85
288.633	0.84
289.002	0.81
289.371	0.83
289.74	0.77
290.109	0.74
290.478	0.72
290.847	0.69
291.216	0.68
291.585	0.68
291.953	0.67
292.322	0.66
292.691	0.69
293.059	0.64
293.428	0.61
293.796	0.61
294.165	0.6
294.533	0.59
294.901	0.55
295.27	0.52
295.638	0.56
296.006	0.42
296.374	0.45
296.743	0.41
297.111	0.36
297.479	0.33
297.847	0.3
298.215	0.3
298.583	0.29
298.95	0.34
299.318	0.34
299.686	0.36
300.054	0.4
300.422	0.36
300.789	0.34
301.157	0.36
301.525	0.31
301.892	0.3
302.26	0.29
302.627	0.37
302.994	0.37
303.362	0.39
303.729	0.4
304.097	0.4
304.464	0.4
304.831	0.43
305.198	0.44
305.565	0.39
305.932	0.35
306.299	0.37
306.666	0.39
307.033	0.42
307.4	0.45
307.767	0.42
308.134	0.37
308.501	0.38
308.867	0.38
309.234	0.32
309.601	0.36
309.967	0.35
310.334	0.37
310.701	0.39
311.067	0.35
311.433	0.37
311.8	0.36
312.166	0.34
312.533	0.3
312.899	0.33
313.265	0.34
313.631	0.33
313.997	0.29
314.363	0.31
314.729	0.37
315.096	0.38
315.461	0.43
315.827	0.38
316.193	0.38
316.559	0.34
316.925	0.32
317.291	0.36
317.656	0.29
318.022	0.33
318.388	0.39
318.753	0.37
319.119	0.33
319.484	0.37
319.85	0.41
320.215	0.46
320.581	0.42
320.946	0.37
321.311	0.35
321.676	0.39
322.042	0.37
322.407	0.38
322.772	0.34
323.137	0.36
323.502	0.36
323.867	0.3
324.232	0.35
324.597	0.35
324.962	0.38
325.327	0.33
325.691	0.37
326.056	0.41
326.421	0.4
326.785	0.43
327.15	0.43
327.514	0.38
327.879	0.43
328.243	0.47
328.608	0.45
328.972	0.42
329.337	0.42
329.701	0.52
330.065	0.59
330.429	0.61
330.794	0.5
331.158	0.53
331.522	0.46
331.886	0.51
332.25	0.52
332.614	0.51
332.978	0.54
333.342	0.48
333.705	0.4
334.069	0.4
334.433	0.48
334.797	0.42
335.16	0.34
335.524	0.4
335.887	0.42
336.251	0.33
336.614	0.35
336.978	0.29
337.341	0.26
337.705	0.21
338.068	0.26
338.431	0.22
338.794	0.17
339.158	0.12
339.521	0.13
339.884	0.17
340.247	0.18
340.61	0.17
340.973	0.17
341.336	0.09
341.699	0.09
342.062	0.14
342.424	0.13
342.787	0.17
343.15	0.14
343.512	0.11
343.875	0.14
344.238	0.26
344.6	0.22
344.963	0.25
345.325	0.37
345.688	0.38
346.05	0.39
346.412	0.36
346.775	0.33
347.137	0.25
347.499	0.28
347.861	0.28
348.223	0.26
348.585	0.26
348.947	0.25
349.309	0.16
349.671	0.23
350.033	0.25
350.395	0.23
350.757	0.27
351.118	0.25
351.48	0.3
351.842	0.24
352.203	0.25
352.565	0.26
352.927	0.24
353.288	0.15
353.65	0.12
354.011	0.09
354.372	0.04
354.734	0.03
355.095	0.01
355.456	0.09
355.817	0.08
356.179	0.14
356.54	0.19
356.901	0.1
357.262	0.07
357.623	0.08
357.984	0.06
358.345	0.11
358.705	0.05
359.066	0.06
359.427	0.14
359.788	0.08
360.148	0.09
360.509	0.09
360.87	0.1
361.23	0.07
361.591	0.11
361.951	0.11
362.312	0.16
362.672	0.13
363.032	0.14
363.393	0.13
363.753	0.12
364.113	0.15
364.473	0.13
364.833	0.19
365.193	0.13
365.553	0.15
365.913	0.18
366.273	0.2
366.633	0.21
366.993	0.24
367.353	0.19
367.713	0.2
368.072	0.16
368.432	0.16
368.792	0.15
369.151	0.09
369.511	0.04
369.87	0.08
370.23	0.13
370.589	0.09
370.949	0.15
371.308	0.1
371.667	0.12
372.027	0.05
372.386	0.07
372.745	0.09
373.104	0.06
373.463	0.04
373.822	0.03
374.181	0.03
374.54	-0.02
374.899	0.06
375.258	0.04
375.617	-0.05
375.975	0.02
376.334	0.07
376.693	0.16
377.052	0.18
377.41	0.11
377.769	0.2
378.127	0.22
378.486	0.28
378.844	0.24
379.202	0.21
379.561	0.21
379.919	0.13
380.277	0.17
380.636	0.2
380.994	0.19
381.352	0.11
381.71	0.13
382.068	0.19
382.426	0.17
382.784	0.12
383.142	0.2
383.5	0.12
383.857	0.12
384.215	0.15
384.573	0.17
384.931	0.09
385.288	0.07
385.646	0.03
386.003	0
386.361	0.09
386.718	0.01
387.076	0
387.433	0.03
387.791	0.07
388.148	0.09
388.505	0.07
388.862	0.1
389.22	0.13
389.577	0.11
389.934	0.16
390.291	0.21
390.648	0.17
391.005	0.19
391.362	0.2
391.718	0.23
392.075	0.14
392.432	0.22
392.789	0.24
393.145	0.22
393.502	0.25
393.859	0.31
394.215	0.34
394.572	0.34
394.928	0.39
395.285	0.4
395.641	0.47
395.997	0.51
396.354	0.46
396.71	0.52
397.066	0.56
397.422	0.61
397.778	0.68
398.134	0.7
398.491	0.79
398.846	0.86
399.202	0.92
399.558	1.03
399.914	1.09
400.27	1.24
400.626	1.34
400.981	1.48
401.337	1.59
401.693	1.65
402.048	1.77
402.404	1.92
402.759	2.03
403.115	2.13
403.47	2.24
403.826	2.38
404.181	2.52
404.536	2.59
404.892	2.71
405.247	2.85
405.602	3.07
405.957	3.19
406.312	3.22
406.667	3.36
407.022	3.54
407.377	3.73
407.732	3.89
408.087	4.02
408.442	4.2
408.796	4.35
409.151	4.48
409.506	4.61
409.86	4.74
410.215	4.89
410.57	5.05
410.924	5.21
411.279	5.4
411.633	5.56
411.987	5.79
412.342	6.02
412.696	6.23
413.05	6.51
413.404	6.74
413.758	7.05
414.113	7.33
414.467	7.5
414.821	7.71
415.175	8.13
415.529	8.38
415.882	8.66
416.236	8.93
416.59	9.33
416.944	9.59
417.298	9.94
417.651	10.29
418.005	10.6
418.358	10.97
418.712	11.37
419.065	11.67
419.419	12.07
419.772	12.43
420.126	12.72
420.479	13.07
420.832	13.42
421.185	13.82
421.539	14.16
421.892	14.49
422.245	14.82
422.598	15.21
422.951	15.57
423.304	15.88
423.657	16.28
424.01	16.6
424.363	17.03
424.715	17.34
425.068	17.69
425.421	18.05
425.773	18.42
426.126	18.77
426.479	19.03
426.831	19.4
427.184	19.75
427.536	20.01
427.889	20.3
428.241	20.58
428.593	20.93
428.945	21.23
429.298	21.58
429.65	21.79
430.002	22.01
430.354	22.25
430.706	22.5
431.058	22.8
431.41	23.08
431.762	23.4
432.114	23.7
432.466	24
432.817	24.35
433.169	24.69
433.521	25.08
433.872	25.25
434.224	25.33
434.576	25.72
434.927	25.85
435.279	26.06
435.63	26.2
435.981	26.35
436.333	26.59
436.684	26.74
437.035	26.88
437.387	27.06
437.738	27.22
438.089	27.35
438.44	27.57
438.791	27.74
439.142	27.91
439.493	28.03
439.844	28.18
440.195	28.19
440.545	28.25
440.896	28.38
441.247	28.38
441.598	28.48
441.948	28.43
442.299	28.47
442.649	28.6
443	28.68
443.35	28.6
443.701	28.66
444.051	28.7
444.401	28.74
444.752	28.79
445.102	28.79
445.452	28.9
445.802	29.02
446.152	29.01
446.502	29.04
446.852	29.01
447.202	28.97
447.552	29.02
447.902	29.07
448.252	29.11
448.602	29.54
448.952	29.66
449.301	29.65
449.651	29.72
450.001	29.86
450.35	29.88
450.7	29.9
451.049	29.85
451.399	29.93
451.748	29.95
452.097	30.01
452.447	30.04
452.796	30.22
453.145	30.27
453.494	30.28
453.843	30.28
454.193	30.33
454.542	30.32
454.891	30.4
455.239	30.48
455.588	30.5
455.937	30.72
456.286	30.65
456.635	30.65
456.984	30.64
457.332	30.26
457.681	30.2
458.03	30.18
458.378	30.11
458.727	30.15
459.075	30.15
459.423	30.23
459.772	30.25
460.12	30.09
460.468	30.06
460.817	30.05
461.165	30.11
461.513	29.95
461.861	30.01
462.209	29.97
462.557	29.93
462.905	29.87
463.253	29.78
463.601	29.62
463.949	29.39
464.297	29.34
464.644	29.19
464.992	29.18
465.34	29.08
465.687	29
466.035	28.83
466.383	28.71
466.73	28.45
467.078	28.44
467.425	28.2
467.772	28.02
468.12	27.85
468.467	27.65
468.814	27.56
469.161	27.39
469.508	27.14
469.856	26.95
470.203	26.84
470.55	26.66
470.897	26.51
471.243	26.41
471.59	26.16
471.937	25.99
472.284	25.91
472.631	25.79
472.977	25.68
473.324	25.43
473.671	25.28
474.017	25.13
474.364	25.01
474.71	24.82
475.057	24.71
475.403	24.65
475.749	24.5
476.096	24.37
476.442	24.17
476.788	24.01
477.134	23.91
477.48	23.75
477.826	23.69
478.172	23.61
478.518	23.44
478.864	23.24
479.21	23.12
479.556	22.98
479.902	22.82
480.248	22.78
480.593	22.66
480.939	22.46
481.285	22.41
481.63	22.31
481.976	22.26
482.321	22.2
482.667	22.09
483.012	21.93
483.357	21.88
483.703	21.81
484.048	21.81
484.393	21.64
484.738	21.68
485.084	21.6
485.429	21.46
485.774	21.42
486.119	21.4
486.464	21.27
486.808	21.17
487.153	21.01
487.498	20.97
487.843	20.86
488.188	20.75
488.532	20.69
488.877	20.55
489.222	20.48
489.566	20.36
489.911	20.25
490.255	20.11
490.6	19.97
490.944	19.81
491.288	19.67
491.633	19.58
491.977	19.46
492.321	19.38
492.665	19.15
493.009	19.02
493.353	18.84
493.697	18.73
494.041	18.68
494.385	18.58
494.729	18.36
495.073	18.29
495.417	18.2
495.76	18.19
496.104	18.04
496.448	17.91
496.791	17.87
497.135	17.7
497.479	17.53
497.822	17.4
498.165	17.3
498.509	17.28
498.852	17.14
499.196	17.07
499.539	16.91
499.882	16.85
500.225	16.69
500.568	16.6
500.911	16.42
501.254	16.34
501.597	16.27
501.94	16.12
502.283	16.07
502.626	15.95
502.969	15.82
503.312	15.81
503.654	15.73
503.997	15.64
504.34	15.48
504.682	15.4
505.025	15.27
505.367	15
505.71	14.91
506.052	14.91
506.395	14.84
506.737	14.74
507.079	14.59
507.421	14.49
507.764	14.38
508.106	14.21
508.448	14.08
508.79	14.05
509.132	13.92
509.474	13.83
509.816	13.72
510.158	13.58
510.499	13.53
510.841	13.36
511.183	13.25
511.525	13.14
511.866	13.05
512.208	12.9
512.549	12.77
512.891	12.66
513.232	12.6
513.574	12.52
513.915	12.55
514.256	12.46
514.598	12.26
514.939	12.21
515.28	12.12
515.621	12.02
515.962	11.97
516.303	11.86
516.644	11.87
516.985	11.81
517.326	11.67
517.667	11.67
518.008	11.58
518.349	11.56
518.69	11.51
519.03	11.31
519.371	11.31
519.712	11.28
520.052	11.25
520.393	11.11
520.733	11.09
521.074	11
521.414	10.98
521.754	10.85
522.095	10.82
522.435	10.8
522.775	10.88
523.115	10.84
523.455	10.77
523.795	10.81
524.135	10.69
524.475	10.47
524.815	10.37
525.155	10.29
525.495	10.26
525.835	10.3
526.175	10.18
526.514	10.14
526.854	10.08
527.194	9.96
527.533	10.02
527.873	9.93
528.212	9.81
528.552	9.74
528.891	9.74
529.23	9.72
529.57	9.73
529.909	9.64
530.248	9.63
530.587	9.6
530.927	9.48
531.266	9.32
531.605	9.33
531.944	9.17
532.283	9.02
532.621	9.02
532.96	9.09
533.299	9.05
533.638	9.07
533.977	8.97
534.315	8.83
534.654	8.75
534.992	8.66
535.331	8.68
535.67	8.71
536.008	8.69
536.346	8.8
536.685	8.74
537.023	8.68
537.361	8.63
537.7	8.61
538.038	8.54
538.376	8.58
538.714	8.52
539.052	8.44
539.39	8.45
539.728	8.34
540.066	8.35
540.404	8.32
540.741	8.23
541.079	8.24
541.417	8.29
541.755	8.28
542.092	8.19
542.43	8.25
542.767	8.24
543.105	8.34
543.442	8.29
543.78	8.13
544.117	8.21
544.454	8.2
544.792	8.04
545.129	8.2
545.466	8.18
545.803	8.21
546.14	8.07
546.477	8.03
546.814	8
547.151	7.96
547.488	7.91
547.825	7.76
548.162	7.88
548.499	7.77
548.835	7.86
549.172	7.87
549.509	7.93
549.845	7.84
550.182	7.87
550.518	7.86
550.855	7.77
551.191	7.78
551.528	7.78
551.864	7.79
552.2	7.94
552.537	7.79
552.873	7.62
553.209	7.56
553.545	7.38
553.881	7.39
554.217	7.25
554.553	7.27
554.889	7.39
555.225	7.48
555.561	7.45
555.896	7.49
556.232	7.55
556.568	7.53
556.903	7.65
557.239	7.59
557.575	7.72
557.91	7.68
558.245	7.71
558.581	7.73
558.916	7.77
559.252	7.9
559.587	7.89
559.922	7.9
560.257	7.93
560.592	7.92
560.928	7.96
561.263	8.2
561.598	8.24
561.933	8.28
562.267	8.42
562.602	8.48
562.937	8.56
563.272	8.54
563.607	8.46
563.941	8.54
564.276	8.52
564.611	8.59
564.945	8.6
565.28	8.61
565.614	8.64
565.949	8.66
566.283	8.67
566.617	8.87
566.951	8.87
567.286	8.9
567.62	8.85
567.954	8.84
568.288	8.8
568.622	8.86
568.956	8.83
569.29	8.94
569.624	8.88
569.958	8.95
570.292	9.02
570.626	9.07
570.959	9.27
571.293	9.3
571.627	9.29
571.96	9.45
572.294	9.44
572.627	9.54
572.961	9.63
573.294	9.65
573.627	9.65
573.961	9.68
574.294	9.71
574.627	9.75
574.961	9.67
575.294	9.73
575.627	9.77
575.96	9.82
576.293	9.87
576.626	9.93
576.959	10.02
577.292	10.06
577.624	10.08
577.957	10.19
578.29	10.31
578.623	10.32
578.955	10.3
579.288	10.28
579.62	10.37
579.953	10.52
580.285	10.47
580.618	10.62
580.95	10.68
581.282	10.78
581.615	10.95
581.947	11.01
582.279	11.11
582.611	11.1
582.943	11.24
583.275	11.3
583.607	11.41
583.939	11.47
584.271	11.52
584.603	11.62
584.935	11.74
585.267	11.76
585.598	11.82
585.93	11.89
586.262	11.85
586.593	11.82
586.925	11.92
587.256	12.01
587.588	12.03
587.919	12.1
588.25	12.04
588.582	12.15
588.913	12.2
589.244	12.24
589.575	12.29
589.907	12.27
590.238	12.35
590.569	12.43
590.9	12.57
591.231	12.55
591.562	12.62
591.892	12.69
592.223	12.95
592.554	13.14
592.885	13.26
593.215	13.31
593.546	13.35
593.877	13.41
594.207	13.45
594.538	13.62
594.868	13.72
595.198	13.77
595.529	13.89
595.859	14.07
596.189	14.07
596.52	14.25
596.85	14.32
597.18	14.4
597.51	14.5
597.84	14.58
598.17	14.73
598.5	14.82
598.83	15.03
599.16	15.28
599.489	15.39
599.819	15.56
600.149	15.7
600.479	15.78
600.808	15.91
601.138	16.11
601.467	16.28
601.797	16.48
602.126	16.78
602.456	16.99
602.785	17.23
603.114	17.43
603.443	17.67
603.773	17.88
604.102	17.97
604.431	18.18
604.76	18.33
605.089	18.58
605.418	18.68
605.747	18.74
606.076	18.93
606.405	19.12
606.733	19.38
607.062	19.42
607.391	19.6
607.72	19.84
608.048	20.02
608.377	20.38
608.705	20.66
609.034	20.96
609.362	21.22
609.69	21.48
610.019	21.8
610.347	22.1
610.675	22.32
611.004	22.38
611.332	22.62
611.66	22.89
611.988	23.11
612.316	23.33
612.644	23.55
612.972	23.89
613.3	23.91
613.627	24.31
613.955	24.7
614.283	24.88
614.611	25.15
614.938	25.27
615.266	25.58
615.593	25.73
615.921	26.03
616.248	26.5
616.576	26.57
616.903	26.94
617.23	27.23
617.558	27.81
617.885	28.12
618.212	28.47
618.539	28.64
618.866	29.3
619.193	29.71
619.52	30.17
619.847	30.48
620.174	30.76
620.501	31.03
620.828	31.25
621.155	31.34
621.481	31.78
621.808	32.25
622.135	32.55
622.461	32.82
622.788	33.04
623.114	33.57
623.441	34.08
623.767	34.54
624.093	34.95
624.42	35.15
624.746	35.84
625.072	35.83
625.398	36.1
625.725	36.01
626.051	36.29
626.377	36.42
626.703	36.85
627.029	36.8
627.354	37.46
627.68	37.38
628.006	37.61
628.332	37.9
628.658	38.48
628.983	38.93
629.309	39.23
629.634	39.89
629.96	39.82
630.285	40.15
630.611	40.33
630.936	40.54
631.262	40.79
631.587	40.55
631.912	40.61
632.237	40.69
632.562	41.22
632.887	41.5
633.213	42.54
633.538	43.1
633.863	43.52
634.187	43.99
634.512	44.4
634.837	44.77
635.162	44.91
635.487	45.1
635.811	46.02
636.136	46.58
636.461	46.87
636.785	46.8
637.11	47.5
637.434	47.83
637.758	48.14
638.083	48.78
638.407	49.29
638.731	49.96
639.056	50.15
639.38	50.25
639.704	50.72
640.028	51.38
640.352	52.29
640.676	52.92
641	52.86
641.324	52.81
641.648	52.56
641.972	52.92
642.295	53.35
642.619	53.57
642.943	53.28
643.266	53.11
643.59	52.73
643.913	52.56
644.237	52.66
644.56	52.47
644.884	52.43
645.207	52.11
645.53	52.33
645.854	52.37
646.177	52.4
646.5	52.5
646.823	52.44
647.146	52.86
647.469	53.16
647.792	53.56
648.115	53.31
648.438	53.56
648.761	55.51
649.084	56.73
649.406	57.13
649.729	56.47
650.052	56.16
650.374	55.87
650.697	55.98
651.019	56.13
651.342	56.36
651.664	56.52
651.987	56.43
652.309	56.33
652.631	56.47
652.953	56.86
653.276	56.97
653.598	57.1
653.92	57.08
654.242	56.98
654.564	56.83
654.886	56.88
655.208	56.83
655.53	56.66
655.851	56.58
656.173	56.65
656.495	56.78
656.816	55.89
657.138	55.24
657.46	54.76
657.781	55.7
658.103	56.75
658.424	57.83
658.746	58.59
659.067	58.69
659.388	58.66
659.709	58.5
660.031	58.76
660.352	58.89
660.673	59.47
660.994	57.98
661.315	58.05
661.636	57.97
661.957	58.24
662.278	58.46
662.599	59.23
662.919	59.36
