Data from T1_Reflection__149__15-28-26-831.txt Node

Date: Thu Jun 03 15:28:26 CEST 2021
User: mabdelazizm
Spectrometer: FLMS18565
Trigger mode: 0
Integration Time (sec): 2.000000E0
Scans to average: 1
Electric dark correction enabled: true
Nonlinearity correction enabled: false
Boxcar width: 12
XAxis mode: Wavelengths
Number of Pixels in Spectrum: 2048
>>>>>Begin Spectral Data<<<<<
179.071	91.76
179.452	108.65
179.833	85.54
180.214	98.27
180.595	100.53
180.977	110.26
181.358	106.62
181.739	108.44
182.12	88.01
182.501	97.81
182.882	129.14
183.262	132.16
183.643	93.88
184.024	77.14
184.405	45.88
184.786	25.61
185.166	25.79
185.547	23.23
185.927	18.18
186.308	27.88
186.689	35.33
187.069	39.24
187.449	35.72
187.83	22.01
188.21	19.24
188.59	16.23
188.971	13.23
189.351	15.28
189.731	10.77
190.111	13.61
190.491	12.56
190.871	13.31
191.251	14.38
191.631	16.59
192.011	17.3
192.391	16.76
192.771	19.25
193.151	17.99
193.531	17.33
193.91	16.84
194.29	19.39
194.67	18.11
195.049	16.06
195.429	16.38
195.808	12.14
196.188	10.23
196.567	9.1
196.946	9.09
197.326	12.05
197.705	13.27
198.084	14.28
198.464	13.33
198.843	13.21
199.222	13.08
199.601	13.83
199.98	11.76
200.359	13.64
200.738	14.04
201.117	14.9
201.496	12.85
201.875	10.88
202.254	8.4
202.632	9.05
203.011	8.57
203.39	10.6
203.768	10.73
204.147	9.97
204.525	11.17
204.904	10.65
205.282	11.48
205.661	11.24
206.039	13.13
206.418	14.74
206.796	15.03
207.174	14.59
207.552	14.83
207.931	13.02
208.309	11.74
208.687	12.37
209.065	12.36
209.443	14.42
209.821	13.35
210.199	13.22
210.577	12.71
210.954	13.38
211.332	13.72
211.71	13.29
212.088	13.72
212.465	13.26
212.843	11.48
213.221	11.03
213.598	12.35
213.976	12.02
214.353	12.53
214.731	12.86
215.108	13.29
215.485	11.12
215.863	9.52
216.24	9.33
216.617	10.16
216.994	10.78
217.371	11.57
217.749	11.4
218.126	11.58
218.503	11.21
218.88	10.87
219.256	11.57
219.633	10.35
220.01	9.33
220.387	9.82
220.764	9.66
221.14	10.22
221.517	9.67
221.894	9.99
222.27	9.81
222.647	9.38
223.023	8.8
223.4	8.78
223.776	8.33
224.153	8.06
224.529	7.71
224.905	7.95
225.282	8.06
225.658	7.72
226.034	7.78
226.41	7.44
226.786	7.53
227.162	7.73
227.538	7.33
227.914	6.98
228.29	6.8
228.666	6.18
229.042	6.04
229.418	6.04
229.793	5.94
230.169	6.01
230.545	5.87
230.92	5.95
231.296	5.62
231.672	5.62
232.047	5.45
232.422	5.44
232.798	5.28
233.173	5.29
233.549	5.15
233.924	5.03
234.299	4.75
234.674	4.68
235.05	4.62
235.425	4.52
235.8	4.32
236.175	4.15
236.55	4.1
236.925	4.02
237.3	3.99
237.675	4
238.049	4.03
238.424	4.01
238.799	4.12
239.174	4.07
239.548	3.94
239.923	3.89
240.297	3.76
240.672	3.95
241.046	3.98
241.421	4.02
241.795	3.99
242.17	4.07
242.544	4.05
242.918	4.14
243.293	4.16
243.667	4.22
244.041	4.15
244.415	4.12
244.789	3.99
245.163	4
245.537	4.03
245.911	3.97
246.285	3.94
246.659	3.91
247.033	3.84
247.406	3.83
247.78	3.82
248.154	3.74
248.528	3.69
248.901	3.72
249.275	3.68
249.648	3.69
250.022	3.6
250.395	3.53
250.769	3.51
251.142	3.54
251.515	3.41
251.888	3.38
252.262	3.29
252.635	3.22
253.008	3.15
253.381	3.19
253.754	3.2
254.127	3.21
254.5	3.2
254.873	3.18
255.246	3.21
255.619	3.24
255.992	3.27
256.364	3.24
256.737	3.18
257.11	3.2
257.483	3.2
257.855	3.22
258.228	3.21
258.6	3.17
258.973	3.17
259.345	3.14
259.718	3.12
260.09	3.1
260.462	3.13
260.834	3.11
261.207	3.08
261.579	3.07
261.951	3.1
262.323	3.06
262.695	2.99
263.067	2.97
263.439	3
263.811	2.98
264.183	2.95
264.555	2.95
264.927	2.9
265.298	2.85
265.67	2.88
266.042	2.91
266.413	2.86
266.785	2.8
267.156	2.76
267.528	2.76
267.899	2.77
268.271	2.71
268.642	2.67
269.013	2.67
269.385	2.62
269.756	2.57
270.127	2.61
270.498	2.59
270.87	2.58
271.241	2.57
271.612	2.65
271.983	2.67
272.354	2.66
272.724	2.64
273.095	2.63
273.466	2.65
273.837	2.59
274.208	2.61
274.578	2.59
274.949	2.56
275.32	2.54
275.69	2.57
276.061	2.56
276.431	2.57
276.802	2.57
277.172	2.56
277.542	2.53
277.913	2.55
278.283	2.53
278.653	2.53
279.023	2.56
279.394	2.55
279.764	2.55
280.134	2.55
280.504	2.56
280.874	2.53
281.244	2.48
281.614	2.47
281.983	2.48
282.353	2.47
282.723	2.41
283.093	2.42
283.462	2.36
283.832	2.33
284.202	2.34
284.571	2.29
284.941	2.28
285.31	2.29
285.68	2.28
286.049	2.31
286.418	2.29
286.788	2.42
287.157	2.4
287.526	2.41
287.895	2.38
288.264	2.36
288.633	2.32
289.002	2.29
289.371	2.3
289.74	2.27
290.109	2.24
290.478	2.28
290.847	2.24
291.216	2.25
291.585	2.22
291.953	2.19
292.322	2.18
292.691	2.22
293.059	2.2
293.428	2.17
293.796	2.2
294.165	2.13
294.533	2.12
294.901	2.11
295.27	2.05
295.638	2.04
296.006	1.85
296.374	1.88
296.743	1.85
297.111	1.85
297.479	1.79
297.847	1.8
298.215	1.78
298.583	1.78
298.95	1.77
299.318	1.79
299.686	1.8
300.054	1.83
300.422	1.82
300.789	1.87
301.157	1.89
301.525	1.91
301.892	1.9
302.26	1.93
302.627	1.95
302.994	1.98
303.362	2.04
303.729	2.03
304.097	2
304.464	1.98
304.831	2.02
305.198	2.06
305.565	2.05
305.932	2.05
306.299	2.03
306.666	2
307.033	2.03
307.4	2.13
307.767	2.07
308.134	2.04
308.501	2.02
308.867	1.96
309.234	1.96
309.601	1.94
309.967	1.88
310.334	1.91
310.701	1.85
311.067	1.82
311.433	1.83
311.8	1.82
312.166	1.78
312.533	1.8
312.899	1.8
313.265	1.82
313.631	1.84
313.997	1.79
314.363	1.78
314.729	1.78
315.096	1.74
315.461	1.75
315.827	1.78
316.193	1.75
316.559	1.65
316.925	1.67
317.291	1.65
317.656	1.61
318.022	1.65
318.388	1.64
318.753	1.55
319.119	1.56
319.484	1.57
319.85	1.58
320.215	1.61
320.581	1.55
320.946	1.56
321.311	1.51
321.676	1.47
322.042	1.5
322.407	1.54
322.772	1.49
323.137	1.57
323.502	1.61
323.867	1.54
324.232	1.57
324.597	1.59
324.962	1.55
325.327	1.48
325.691	1.56
326.056	1.51
326.421	1.53
326.785	1.54
327.15	1.54
327.514	1.49
327.879	1.57
328.243	1.6
328.608	1.62
328.972	1.62
329.337	1.64
329.701	1.71
330.065	1.75
330.429	1.8
330.794	1.78
331.158	1.76
331.522	1.71
331.886	1.73
332.25	1.69
332.614	1.69
332.978	1.71
333.342	1.67
333.705	1.66
334.069	1.68
334.433	1.76
334.797	1.71
335.16	1.71
335.524	1.78
335.887	1.82
336.251	1.75
336.614	1.75
336.978	1.7
337.341	1.66
337.705	1.57
338.068	1.65
338.431	1.65
338.794	1.62
339.158	1.55
339.521	1.55
339.884	1.57
340.247	1.56
340.61	1.51
340.973	1.57
341.336	1.53
341.699	1.53
342.062	1.58
342.424	1.55
342.787	1.55
343.15	1.55
343.512	1.5
343.875	1.54
344.238	1.62
344.6	1.58
344.963	1.55
345.325	1.65
345.688	1.66
346.05	1.71
346.412	1.7
346.775	1.71
347.137	1.62
347.499	1.63
347.861	1.62
348.223	1.63
348.585	1.6
348.947	1.57
349.309	1.57
349.671	1.67
350.033	1.63
350.395	1.6
350.757	1.62
351.118	1.6
351.48	1.71
351.842	1.62
352.203	1.66
352.565	1.7
352.927	1.72
353.288	1.68
353.65	1.64
354.011	1.64
354.372	1.6
354.734	1.58
355.095	1.61
355.456	1.68
355.817	1.7
356.179	1.71
356.54	1.67
356.901	1.63
357.262	1.6
357.623	1.62
357.984	1.64
358.345	1.63
358.705	1.53
359.066	1.47
359.427	1.45
359.788	1.41
360.148	1.43
360.509	1.36
360.87	1.43
361.23	1.35
361.591	1.33
361.951	1.29
362.312	1.32
362.672	1.25
363.032	1.28
363.393	1.27
363.753	1.31
364.113	1.23
364.473	1.17
364.833	1.21
365.193	1.19
365.553	1.22
365.913	1.22
366.273	1.18
366.633	1.18
366.993	1.17
367.353	1.16
367.713	1.14
368.072	1.21
368.432	1.26
368.792	1.26
369.151	1.16
369.511	1.18
369.87	1.24
370.23	1.31
370.589	1.32
370.949	1.33
371.308	1.37
371.667	1.45
372.027	1.41
372.386	1.44
372.745	1.36
373.104	1.39
373.463	1.41
373.822	1.32
374.181	1.31
374.54	1.36
374.899	1.38
375.258	1.4
375.617	1.36
375.975	1.45
376.334	1.49
376.693	1.6
377.052	1.62
377.41	1.65
377.769	1.72
378.127	1.73
378.486	1.74
378.844	1.69
379.202	1.7
379.561	1.69
379.919	1.72
380.277	1.65
380.636	1.66
380.994	1.67
381.352	1.68
381.71	1.8
382.068	1.87
382.426	1.88
382.784	1.97
383.142	2.08
383.5	2.07
383.857	2.17
384.215	2.21
384.573	2.3
384.931	2.28
385.288	2.24
385.646	2.22
386.003	2.18
386.361	2.25
386.718	2.32
387.076	2.44
387.433	2.6
387.791	2.7
388.148	2.86
388.505	2.94
388.862	2.98
389.22	3.15
389.577	3.29
389.934	3.44
390.291	3.57
390.648	3.67
391.005	3.83
391.362	4
391.718	4.1
392.075	4.2
392.432	4.3
392.789	4.41
393.145	4.6
393.502	4.8
393.859	4.97
394.215	5.16
394.572	5.39
394.928	5.7
395.285	5.85
395.641	6.04
395.997	6.37
396.354	6.49
396.71	6.71
397.066	6.9
397.422	7.16
397.778	7.49
398.134	7.73
398.491	8.01
398.846	8.38
399.202	8.7
399.558	8.99
399.914	9.3
400.27	9.63
400.626	10.02
400.981	10.38
401.337	10.81
401.693	11.2
402.048	11.58
402.404	11.96
402.759	12.42
403.115	12.91
403.47	13.36
403.826	13.8
404.181	14.3
404.536	14.76
404.892	15.11
405.247	15.62
405.602	16.18
405.957	16.69
406.312	17.12
406.667	17.59
407.022	18.1
407.377	18.56
407.732	19.01
408.087	19.5
408.442	20.04
408.796	20.5
409.151	21.1
409.506	21.57
409.86	22.1
410.215	22.66
410.57	23.28
410.924	23.84
411.279	24.36
411.633	24.93
411.987	25.54
412.342	26.09
412.696	26.53
413.05	27.07
413.404	27.51
413.758	28.07
414.113	28.45
414.467	28.83
414.821	29.14
415.175	29.63
415.529	30.08
415.882	30.51
416.236	30.88
416.59	31.33
416.944	31.69
417.298	32.06
417.651	32.4
418.005	32.65
418.358	33.01
418.712	33.39
419.065	33.68
419.419	33.88
419.772	34.15
420.126	34.36
420.479	34.52
420.832	34.68
421.185	34.86
421.539	35.09
421.892	35.27
422.245	35.45
422.598	35.51
422.951	35.86
423.304	35.98
423.657	36.25
424.01	36.55
424.363	36.71
424.715	36.87
425.068	37.11
425.421	37.33
425.773	37.56
426.126	37.87
426.479	38.06
426.831	38.33
427.184	38.44
427.536	38.39
427.889	38.48
428.241	38.69
428.593	38.93
428.945	39.1
429.298	39.27
429.65	39.41
430.002	39.56
430.354	39.74
430.706	39.84
431.058	39.88
431.41	40.22
431.762	40.3
432.114	40.53
432.466	40.68
432.817	40.72
433.169	40.92
433.521	41.06
433.872	41.11
434.224	41.03
434.576	41.07
434.927	41.03
435.279	41.13
435.63	41.2
435.981	41.36
436.333	41.73
436.684	41.71
437.035	41.69
437.387	41.73
437.738	41.84
438.089	41.94
438.44	42.04
438.791	42.04
439.142	42.09
439.493	42.19
439.844	42.4
440.195	42.31
440.545	42.44
440.896	42.5
441.247	42.52
441.598	42.51
441.948	42.57
442.299	42.55
442.649	42.73
443	42.82
443.35	42.87
443.701	42.9
444.051	42.95
444.401	42.92
444.752	42.94
445.102	42.76
445.452	42.87
445.802	43.06
446.152	43.02
446.502	42.98
446.852	42.97
447.202	42.86
447.552	43.03
447.902	43.09
448.252	43.1
448.602	43.57
448.952	43.6
449.301	43.53
449.651	43.56
450.001	43.61
450.35	43.6
450.7	43.49
451.049	43.49
451.399	43.43
451.748	43.46
452.097	43.46
452.447	43.43
452.796	43.34
453.145	43.3
453.494	43.24
453.843	43.31
454.193	43.4
454.542	43.24
454.891	43.29
455.239	43.28
455.588	43.2
455.937	43.39
456.286	43.37
456.635	43.37
456.984	43.35
457.332	42.77
457.681	42.9
458.03	42.82
458.378	42.73
458.727	42.71
459.075	42.83
459.423	43.05
459.772	43.13
460.12	43.11
460.468	43.04
460.817	43.03
461.165	42.94
461.513	43.03
461.861	43.19
462.209	43.12
462.557	43.08
462.905	42.82
463.253	42.93
463.601	42.86
463.949	42.8
464.297	42.7
464.644	42.52
464.992	42.35
465.34	42.35
465.687	42.34
466.035	42.34
466.383	42.24
466.73	42.21
467.078	42.28
467.425	42.27
467.772	42.2
468.12	41.94
468.467	41.8
468.814	41.83
469.161	41.73
469.508	41.74
469.856	41.85
470.203	41.8
470.55	41.61
470.897	41.69
471.243	41.66
471.59	41.77
471.937	41.5
472.284	41.5
472.631	41.45
472.977	41.5
473.324	41.46
473.671	41.46
474.017	41.28
474.364	41.19
474.71	41.12
475.057	41.01
475.403	40.85
475.749	40.74
476.096	40.64
476.442	40.38
476.788	40.31
477.134	40.32
477.48	40.15
477.826	40.09
478.172	39.96
478.518	39.81
478.864	39.64
479.21	39.55
479.556	39.32
479.902	39.25
480.248	39.08
480.593	39.08
480.939	39.01
481.285	38.93
481.63	38.73
481.976	38.63
482.321	38.57
482.667	38.52
483.012	38.44
483.357	38.43
483.703	38.28
484.048	38.27
484.393	38.1
484.738	38.12
485.084	38.12
485.429	38.05
485.774	37.96
486.119	38.01
486.464	37.96
486.808	37.91
487.153	37.86
487.498	37.8
487.843	37.74
488.188	37.75
488.532	37.61
488.877	37.57
489.222	37.56
489.566	37.45
489.911	37.39
490.255	37.47
490.6	37.34
490.944	37.25
491.288	37.19
491.633	37.16
491.977	37.06
492.321	37.05
492.665	36.93
493.009	36.96
493.353	36.74
493.697	36.64
494.041	36.57
494.385	36.58
494.729	36.46
495.073	36.44
495.417	36.37
495.76	36.33
496.104	36.29
496.448	36.11
496.791	36.03
497.135	36.02
497.479	35.9
497.822	35.73
498.165	35.66
498.509	35.59
498.852	35.41
499.196	35.44
499.539	35.35
499.882	35.26
500.225	35.14
500.568	35.12
500.911	35.07
501.254	35.03
501.597	34.91
501.94	34.9
502.283	34.9
502.626	34.85
502.969	34.72
503.312	34.62
503.654	34.52
503.997	34.41
504.34	34.28
504.682	34.24
505.025	34.23
505.367	34.09
505.71	34.04
506.052	34.06
506.395	34.11
506.737	33.96
507.079	33.9
507.421	33.9
507.764	33.77
508.106	33.62
508.448	33.51
508.79	33.36
509.132	33.23
509.474	33.1
509.816	32.97
510.158	33.07
510.499	33.02
510.841	33.01
511.183	32.9
511.525	32.79
511.866	32.8
512.208	32.73
512.549	32.58
512.891	32.45
513.232	32.35
513.574	32.35
513.915	32.37
514.256	32.25
514.598	32.1
514.939	31.96
515.28	31.96
515.621	31.85
515.962	31.76
516.303	31.76
516.644	31.73
516.985	31.63
517.326	31.55
517.667	31.5
518.008	31.47
518.349	31.58
518.69	31.29
519.03	31.09
519.371	31.01
519.712	31.06
520.052	30.96
520.393	30.76
520.733	30.66
521.074	30.64
521.414	30.63
521.754	30.52
522.095	30.44
522.435	30.39
522.775	30.39
523.115	30.38
523.455	30.24
523.795	30.17
524.135	30.13
524.475	29.99
524.815	29.82
525.155	29.86
525.495	29.82
525.835	29.9
526.175	29.67
526.514	29.55
526.854	29.34
527.194	29.34
527.533	29.29
527.873	29.2
528.212	28.98
528.552	28.99
528.891	28.94
529.23	28.91
529.57	28.84
529.909	28.71
530.248	28.62
530.587	28.53
530.927	28.44
531.266	28.3
531.605	28.17
531.944	28.1
532.283	27.99
532.621	27.91
532.96	27.97
533.299	27.95
533.638	27.87
533.977	27.7
534.315	27.59
534.654	27.56
534.992	27.53
535.331	27.44
535.67	27.34
536.008	27.35
536.346	27.29
536.685	27.25
537.023	27.15
537.361	27.04
537.7	26.94
538.038	26.98
538.376	26.99
538.714	27
539.052	26.94
539.39	26.91
539.728	26.81
540.066	26.73
540.404	26.64
540.741	26.58
541.079	26.62
541.417	26.47
541.755	26.38
542.092	26.3
542.43	26.44
542.767	26.36
543.105	26.41
543.442	26.36
543.78	26.32
544.117	26.49
544.454	26.45
544.792	26.4
545.129	26.36
545.466	26.35
545.803	26.31
546.14	26.28
546.477	26.19
546.814	26.26
547.151	26.11
547.488	26.16
547.825	26.03
548.162	26.06
548.499	26.12
548.835	26.24
549.172	26.17
549.509	26.1
549.845	26.06
550.182	26.12
550.518	26.06
550.855	25.89
551.191	25.96
551.528	25.88
551.864	25.95
552.2	26.12
552.537	26.01
552.873	25.95
553.209	25.88
553.545	25.81
553.881	25.74
554.217	25.85
554.553	25.82
554.889	25.87
555.225	25.84
555.561	25.84
555.896	25.74
556.232	25.77
556.568	25.85
556.903	25.96
557.239	25.79
557.575	25.92
557.91	26.03
558.245	26.18
558.581	26
558.916	26.13
559.252	26.28
559.587	26.3
559.922	26.5
560.257	26.4
560.592	26.34
560.928	26.31
561.263	26.38
561.598	26.45
561.933	26.55
562.267	26.73
562.602	26.74
562.937	26.91
563.272	26.94
563.607	26.9
563.941	27.03
564.276	27.19
564.611	27.21
564.945	27.15
565.28	27.05
565.614	27.13
565.949	27.04
566.283	26.94
566.617	26.98
566.951	27.15
567.286	27.21
567.62	27.19
567.954	27.18
568.288	27.1
568.622	27.14
568.956	27.04
569.29	26.97
569.624	27
569.958	27.1
570.292	27.15
570.626	27.11
570.959	27.13
571.293	27.17
571.627	27.23
571.96	27.33
572.294	27.27
572.627	27.27
572.961	27.25
573.294	27.28
573.627	27.33
573.961	27.44
574.294	27.49
574.627	27.64
574.961	27.61
575.294	27.64
575.627	27.51
575.96	27.49
576.293	27.57
576.626	27.61
576.959	27.62
577.292	27.68
577.624	27.76
577.957	27.83
578.29	27.84
578.623	27.86
578.955	27.88
579.288	27.9
579.62	27.86
579.953	27.89
580.285	27.88
580.618	27.98
580.95	27.97
581.282	28.11
581.615	28.18
581.947	28.14
582.279	28.12
582.611	28.13
582.943	28.05
583.275	28.05
583.607	28.18
583.939	28.28
584.271	28.41
584.603	28.31
584.935	28.34
585.267	28.37
585.598	28.47
585.93	28.55
586.262	28.48
586.593	28.43
586.925	28.47
587.256	28.6
587.588	28.75
587.919	28.79
588.25	28.85
588.582	28.99
588.913	29.11
589.244	29.18
589.575	29.3
589.907	29.28
590.238	29.47
590.569	29.57
590.9	29.7
591.231	29.77
591.562	29.81
591.892	29.81
592.223	30.07
592.554	30.24
592.885	30.5
593.215	30.52
593.546	30.6
593.877	30.65
594.207	30.56
594.538	30.67
594.868	30.82
595.198	30.86
595.529	30.92
595.859	30.97
596.189	31.1
596.52	31.15
596.85	31.04
597.18	31.08
597.51	31.04
597.84	31.1
598.17	31.21
598.5	31.23
598.83	31.37
599.16	31.56
599.489	31.74
599.819	31.94
600.149	32.03
600.479	32.06
600.808	32.05
601.138	32.05
601.467	32.18
601.797	32.41
602.126	32.61
602.456	32.98
602.785	33.11
603.114	33.29
603.443	33.58
603.773	33.77
604.102	33.89
604.431	33.99
604.76	34.06
605.089	34.32
605.418	34.43
605.747	34.71
606.076	34.69
606.405	34.79
606.733	34.92
607.062	35.16
607.391	35.34
607.72	35.45
608.048	35.6
608.377	35.78
608.705	35.85
609.034	36.1
609.362	36.31
609.69	36.54
610.019	36.68
610.347	36.79
610.675	36.83
611.004	37.09
611.332	37.1
611.66	37.08
611.988	37.14
612.316	37.17
612.644	37.3
612.972	37.47
613.3	37.49
613.627	37.73
613.955	37.89
614.283	38.15
614.611	38.44
614.938	38.56
615.266	38.58
615.593	38.54
615.921	38.68
616.248	38.83
616.576	38.99
616.903	39.06
617.23	39
617.558	39.33
617.885	39.51
618.212	39.55
618.539	39.8
618.866	40.09
619.193	40.04
619.52	40.37
619.847	40.74
620.174	40.63
620.501	40.87
620.828	41.11
621.155	41.09
621.481	41.35
621.808	41.53
622.135	41.57
622.461	41.72
622.788	41.75
623.114	41.99
623.441	42.01
623.767	41.98
624.093	42.23
624.42	42.31
624.746	42.68
625.072	43
625.398	43.55
625.725	43.53
626.051	43.65
626.377	44.12
626.703	44.03
627.029	43.97
627.354	44.58
627.68	44.59
628.006	44.43
628.332	44.87
628.658	45.11
628.983	44.86
629.309	45.23
629.634	45.45
629.96	45.17
630.285	45.33
630.611	45.19
630.936	44.99
631.262	45.03
631.587	45.15
631.912	45.39
632.237	45.2
632.562	45.63
632.887	45.48
633.213	45.78
633.538	45.88
633.863	45.73
634.187	45.98
634.512	45.94
634.837	45.91
635.162	45.88
635.487	45.9
635.811	46.2
636.136	46.4
636.461	46.97
636.785	46.96
637.11	47.42
637.434	47.94
637.758	48.17
638.083	48.66
638.407	49.3
638.731	49.85
639.056	50.11
639.38	50.12
639.704	50.28
640.028	51.21
640.352	51.69
640.676	51.1
641	51.2
641.324	51.43
641.648	50.93
641.972	50.96
642.295	50.96
642.619	50.93
642.943	51.2
643.266	50.82
643.59	50.51
643.913	50.75
644.237	51.06
644.56	50.58
644.884	50.35
645.207	50.85
645.53	50.69
645.854	50.66
646.177	50.53
646.5	50.13
646.823	49.87
647.146	50.38
647.469	50.65
647.792	51.1
648.115	50.43
648.438	50.65
648.761	52.63
649.084	52.28
649.406	51.53
649.729	50.63
650.052	50.15
650.374	50.01
650.697	50
651.019	50.07
651.342	50.35
651.664	50.28
651.987	50.12
652.309	50.05
652.631	50.24
652.953	50.41
653.276	50.2
653.598	50.06
653.92	50.16
654.242	50.19
654.564	50.15
654.886	50.09
655.208	49.98
655.53	49.91
655.851	49.61
656.173	49.74
656.495	49.73
656.816	48.85
657.138	48.29
657.46	48.06
657.781	48.84
658.103	50.04
