Data from T1_Reflection__100__14-32-20-937.txt Node

Date: Thu Jun 03 14:32:20 CEST 2021
User: mabdelazizm
Spectrometer: FLMS18565
Trigger mode: 0
Integration Time (sec): 2.000000E0
Scans to average: 1
Electric dark correction enabled: true
Nonlinearity correction enabled: false
Boxcar width: 12
XAxis mode: Wavelengths
Number of Pixels in Spectrum: 2048
>>>>>Begin Spectral Data<<<<<
179.071	-47.19
179.452	-2.26
179.833	7.98
180.214	26.01
180.595	25.43
180.977	48.3
181.358	24.34
181.739	2.81
182.12	-13.21
182.501	-48.09
182.882	-92.84
183.262	-111.56
183.643	-79.44
184.024	-55.66
184.405	-11.03
184.786	-10.13
185.166	2.41
185.547	-1.64
185.927	2.64
186.308	3.82
186.689	7.72
187.069	8.83
187.449	11.45
187.83	2.4
188.21	-0.39
188.59	-1.95
188.971	-5.09
189.351	-3.62
189.731	-5.62
190.111	-4.99
190.491	-6.24
190.871	0.74
191.251	3.43
191.631	4.55
192.011	4.11
192.391	6.82
192.771	8.13
193.151	9.2
193.531	9.24
193.91	7.01
194.29	6.41
194.67	5.57
195.049	7.03
195.429	4.93
195.808	5.37
196.188	3.47
196.567	1.42
196.946	1.93
197.326	3.51
197.705	4.02
198.084	4.85
198.464	3.4
198.843	2.15
199.222	1.72
199.601	2.31
199.98	0.36
200.359	-1.96
200.738	-0.96
201.117	-0.86
201.496	-1.21
201.875	-0.26
202.254	-0.3
202.632	-1.58
203.011	-1.77
203.39	-1.24
203.768	1.08
204.147	0.24
204.525	-1.95
204.904	-0.57
205.282	-0.3
205.661	-0.11
206.039	1.79
206.418	1.47
206.796	2.18
207.174	1.93
207.552	2.43
207.931	2.23
208.309	2.68
208.687	3.03
209.065	2.91
209.443	3.03
209.821	3.15
210.199	2.27
210.577	3.12
210.954	3.98
211.332	2.96
211.71	1.69
212.088	2.85
212.465	1.57
212.843	1.09
213.221	0.03
213.598	0.34
213.976	0.78
214.353	1.02
214.731	1.25
215.108	1.29
215.485	0.36
215.863	-0.38
216.24	0.79
216.617	1.37
216.994	0.22
217.371	0.33
217.749	-0.84
218.126	-0.98
218.503	-0.59
218.88	0.38
219.256	1.32
219.633	0.67
220.01	0
220.387	1.16
220.764	0.87
221.14	1.69
221.517	1.31
221.894	1.69
222.27	1.52
222.647	1.27
223.023	1.19
223.4	1.49
223.776	1.19
224.153	1.54
224.529	1.4
224.905	1.81
225.282	2.33
225.658	1.9
226.034	1.71
226.41	2
226.786	2.24
227.162	2.29
227.538	2.07
227.914	2.18
228.29	2.14
228.666	1.56
229.042	1.73
229.418	1.73
229.793	1.65
230.169	1.87
230.545	1.78
230.92	1.89
231.296	1.83
231.672	1.82
232.047	1.92
232.422	1.94
232.798	1.91
233.173	2.01
233.549	1.85
233.924	1.88
234.299	1.71
234.674	1.64
235.05	1.43
235.425	1.54
235.8	1.53
236.175	1.46
236.55	1.45
236.925	1.45
237.3	1.35
237.675	1.34
238.049	1.45
238.424	1.48
238.799	1.52
239.174	1.46
239.548	1.34
239.923	1.39
240.297	1.31
240.672	1.4
241.046	1.43
241.421	1.46
241.795	1.44
242.17	1.48
242.544	1.46
242.918	1.53
243.293	1.53
243.667	1.62
244.041	1.61
244.415	1.68
244.789	1.64
245.163	1.6
245.537	1.6
245.911	1.56
246.285	1.55
246.659	1.55
247.033	1.55
247.406	1.49
247.78	1.52
248.154	1.51
248.528	1.47
248.901	1.5
249.275	1.47
249.648	1.47
250.022	1.43
250.395	1.38
250.769	1.35
251.142	1.37
251.515	1.32
251.888	1.33
252.262	1.25
252.635	1.21
253.008	1.14
253.381	1.16
253.754	1.16
254.127	1.14
254.5	1.09
254.873	1.09
255.246	1.18
255.619	1.18
255.992	1.16
256.364	1.14
256.737	1.15
257.11	1.11
257.483	1.12
257.855	1.13
258.228	1.13
258.6	1.13
258.973	1.12
259.345	1.16
259.718	1.15
260.09	1.15
260.462	1.17
260.834	1.17
261.207	1.12
261.579	1.15
261.951	1.16
262.323	1.14
262.695	1.13
263.067	1.12
263.439	1.12
263.811	1.14
264.183	1.11
264.555	1.07
264.927	1.06
265.298	1.06
265.67	1.03
266.042	1.02
266.413	0.99
266.785	0.97
267.156	1.01
267.528	1.04
267.899	1.05
268.271	1.03
268.642	1.01
269.013	0.99
269.385	0.97
269.756	0.94
270.127	0.95
270.498	0.92
270.87	0.86
271.241	0.83
271.612	0.82
271.983	0.8
272.354	0.79
272.724	0.83
273.095	0.82
273.466	0.82
273.837	0.79
274.208	0.78
274.578	0.8
274.949	0.85
275.32	0.9
275.69	0.91
276.061	0.88
276.431	0.78
276.802	0.76
277.172	0.7
277.542	0.71
277.913	0.68
278.283	0.71
278.653	0.69
279.023	0.68
279.394	0.67
279.764	0.71
280.134	0.73
280.504	0.77
280.874	0.8
281.244	0.79
281.614	0.78
281.983	0.77
282.353	0.81
282.723	0.81
283.093	0.82
283.462	0.82
283.832	0.8
284.202	0.78
284.571	0.75
284.941	0.79
285.31	0.77
285.68	0.82
286.049	0.81
286.418	0.79
286.788	0.92
287.157	0.87
287.526	0.88
287.895	0.88
288.264	0.88
288.633	0.84
289.002	0.77
289.371	0.78
289.74	0.76
290.109	0.73
290.478	0.75
290.847	0.73
291.216	0.73
291.585	0.64
291.953	0.63
292.322	0.64
292.691	0.65
293.059	0.63
293.428	0.6
293.796	0.59
294.165	0.51
294.533	0.52
294.901	0.5
295.27	0.48
295.638	0.5
296.006	0.31
296.374	0.36
296.743	0.33
297.111	0.33
297.479	0.3
297.847	0.3
298.215	0.34
298.583	0.35
298.95	0.36
299.318	0.38
299.686	0.38
300.054	0.42
300.422	0.4
300.789	0.44
301.157	0.45
301.525	0.44
301.892	0.44
302.26	0.49
302.627	0.49
302.994	0.52
303.362	0.59
303.729	0.61
304.097	0.6
304.464	0.58
304.831	0.6
305.198	0.64
305.565	0.62
305.932	0.66
306.299	0.63
306.666	0.61
307.033	0.68
307.4	0.72
307.767	0.66
308.134	0.7
308.501	0.64
308.867	0.58
309.234	0.55
309.601	0.53
309.967	0.58
310.334	0.62
310.701	0.56
311.067	0.51
311.433	0.47
311.8	0.48
312.166	0.43
312.533	0.39
312.899	0.41
313.265	0.42
313.631	0.44
313.997	0.41
314.363	0.41
314.729	0.41
315.096	0.37
315.461	0.41
315.827	0.43
316.193	0.39
316.559	0.35
316.925	0.37
317.291	0.34
317.656	0.33
318.022	0.4
318.388	0.44
318.753	0.44
319.119	0.38
319.484	0.36
319.85	0.36
320.215	0.43
320.581	0.41
320.946	0.37
321.311	0.39
321.676	0.45
322.042	0.47
322.407	0.43
322.772	0.39
323.137	0.49
323.502	0.51
323.867	0.5
324.232	0.48
324.597	0.47
324.962	0.47
325.327	0.44
325.691	0.49
326.056	0.51
326.421	0.52
326.785	0.54
327.15	0.52
327.514	0.41
327.879	0.48
328.243	0.53
328.608	0.49
328.972	0.53
329.337	0.5
329.701	0.58
330.065	0.62
330.429	0.6
330.794	0.52
331.158	0.48
331.522	0.47
331.886	0.5
332.25	0.39
332.614	0.4
332.978	0.37
333.342	0.38
333.705	0.39
334.069	0.38
334.433	0.45
334.797	0.39
335.16	0.35
335.524	0.36
335.887	0.35
336.251	0.27
336.614	0.36
336.978	0.32
337.341	0.27
337.705	0.25
338.068	0.34
338.431	0.31
338.794	0.24
339.158	0.23
339.521	0.2
339.884	0.18
340.247	0.17
340.61	0.16
340.973	0.17
341.336	0.2
341.699	0.13
342.062	0.14
342.424	0.15
342.787	0.12
343.15	0.13
343.512	0.08
343.875	0.13
344.238	0.21
344.6	0.16
344.963	0.15
345.325	0.22
345.688	0.18
346.05	0.16
346.412	0.18
346.775	0.21
347.137	0.09
347.499	0.13
347.861	0.17
348.223	0.12
348.585	0.16
348.947	0.18
349.309	0.18
349.671	0.25
350.033	0.21
350.395	0.14
350.757	0.21
351.118	0.24
351.48	0.3
351.842	0.3
352.203	0.26
352.565	0.28
352.927	0.27
353.288	0.22
353.65	0.27
354.011	0.27
354.372	0.24
354.734	0.2
355.095	0.23
355.456	0.25
355.817	0.17
356.179	0.2
356.54	0.17
356.901	0.1
357.262	0.08
357.623	0.11
357.984	0.1
358.345	0.15
358.705	0.11
359.066	0.13
359.427	0.17
359.788	0.15
360.148	0.16
360.509	0.1
360.87	0.03
361.23	-0
361.591	-0.01
361.951	-0.04
362.312	-0.05
362.672	-0.08
363.032	-0.06
363.393	0
363.753	0.08
364.113	0.05
364.473	0.07
364.833	0.15
365.193	0.16
365.553	0.22
365.913	0.21
366.273	0.23
366.633	0.24
366.993	0.26
367.353	0.21
367.713	0.19
368.072	0.18
368.432	0.2
368.792	0.22
369.151	0.2
369.511	0.25
369.87	0.36
370.23	0.42
370.589	0.36
370.949	0.42
371.308	0.44
371.667	0.42
372.027	0.4
372.386	0.43
372.745	0.39
373.104	0.36
373.463	0.33
373.822	0.34
374.181	0.37
374.54	0.37
374.899	0.5
375.258	0.49
375.617	0.41
375.975	0.46
376.334	0.5
376.693	0.61
377.052	0.65
377.41	0.69
377.769	0.7
378.127	0.67
378.486	0.68
378.844	0.62
379.202	0.64
379.561	0.72
379.919	0.65
380.277	0.62
380.636	0.66
380.994	0.69
381.352	0.62
381.71	0.68
382.068	0.76
382.426	0.81
382.784	0.83
383.142	0.84
383.5	0.78
383.857	0.77
384.215	0.85
384.573	0.9
384.931	0.83
385.288	0.78
385.646	0.73
386.003	0.74
386.361	0.78
386.718	0.78
387.076	0.87
387.433	0.91
387.791	0.98
388.148	1.03
388.505	1.01
388.862	1.05
389.22	1.14
389.577	1.26
389.934	1.39
390.291	1.47
390.648	1.52
391.005	1.62
391.362	1.64
391.718	1.67
392.075	1.75
392.432	1.85
392.789	1.94
393.145	1.95
393.502	2.12
393.859	2.27
394.215	2.42
394.572	2.5
394.928	2.57
395.285	2.63
395.641	2.77
395.997	2.94
396.354	3.02
396.71	3.16
397.066	3.37
397.422	3.57
397.778	3.79
398.134	3.97
398.491	4.08
398.846	4.19
399.202	4.41
399.558	4.59
399.914	4.75
400.27	5
400.626	5.26
400.981	5.42
401.337	5.79
401.693	6.1
402.048	6.43
402.404	6.65
402.759	6.83
403.115	7.18
403.47	7.52
403.826	7.86
404.181	8.22
404.536	8.5
404.892	8.69
405.247	9.01
405.602	9.42
405.957	9.74
406.312	10.05
406.667	10.45
407.022	10.88
407.377	11.27
407.732	11.7
408.087	12.06
408.442	12.49
408.796	12.96
409.151	13.41
409.506	13.86
409.86	14.37
410.215	14.75
410.57	15.06
410.924	15.49
411.279	15.99
411.633	16.51
411.987	17.04
412.342	17.56
412.696	17.96
413.05	18.47
413.404	18.99
413.758	19.63
414.113	20.12
414.467	20.55
414.821	20.95
415.175	21.45
415.529	21.93
415.882	22.44
416.236	22.82
416.59	23.35
416.944	23.84
417.298	24.42
417.651	24.84
418.005	25.28
418.358	25.72
418.712	26.14
419.065	26.5
419.419	26.91
419.772	27.41
420.126	27.8
420.479	28.35
420.832	28.68
421.185	29.1
421.539	29.63
421.892	29.96
422.245	30.42
422.598	30.76
422.951	31.25
423.304	31.59
423.657	32.09
424.01	32.58
424.363	33.04
424.715	33.41
425.068	33.96
425.421	34.29
425.773	34.73
426.126	35.19
426.479	35.58
426.831	35.97
427.184	36.27
427.536	36.58
427.889	36.99
428.241	37.38
428.593	37.7
428.945	37.99
429.298	38.25
429.65	38.6
430.002	38.83
430.354	39.12
430.706	39.38
431.058	39.53
431.41	39.92
431.762	40.16
432.114	40.44
432.466	40.56
432.817	40.68
433.169	40.92
433.521	41.16
433.872	41.34
434.224	41.6
434.576	41.83
434.927	41.83
435.279	41.97
435.63	42.13
435.981	42.4
436.333	42.73
436.684	42.84
437.035	43.02
437.387	43.12
437.738	43.28
438.089	43.27
438.44	43.39
438.791	43.48
439.142	43.67
439.493	43.86
439.844	44.05
440.195	44.07
440.545	44.17
440.896	44.35
441.247	44.5
441.598	44.6
441.948	44.63
442.299	44.68
442.649	44.76
443	44.76
443.35	44.69
443.701	44.76
444.051	44.8
444.401	44.84
444.752	44.84
445.102	44.7
445.452	44.7
445.802	44.71
446.152	44.74
446.502	44.81
446.852	44.96
447.202	44.86
447.552	44.91
447.902	44.9
448.252	44.83
448.602	44.19
448.952	44.11
449.301	44.01
449.651	44.05
450.001	44.06
450.35	44.08
450.7	43.96
451.049	43.89
451.399	43.89
451.748	43.95
452.097	43.99
452.447	43.91
452.796	43.87
453.145	43.7
453.494	43.7
453.843	43.66
454.193	43.75
454.542	43.68
454.891	43.7
455.239	43.47
455.588	43.39
455.937	43.46
456.286	43.53
456.635	43.48
456.984	43.4
457.332	44.08
457.681	44.11
458.03	44.14
458.378	43.96
458.727	43.91
459.075	44.03
459.423	44.29
459.772	44.34
460.12	44.2
460.468	44.05
460.817	44.07
461.165	44.07
461.513	44.03
461.861	44.21
462.209	43.98
462.557	44.01
462.905	43.89
463.253	43.92
463.601	43.82
463.949	43.91
464.297	43.92
464.644	43.81
464.992	43.67
465.34	43.47
465.687	43.49
466.035	43.35
466.383	43.2
466.73	42.87
467.078	42.93
467.425	42.97
467.772	42.86
468.12	42.59
468.467	42.35
468.814	42.46
469.161	42.42
469.508	42.29
469.856	42.17
470.203	42.13
470.55	42
470.897	41.98
471.243	41.87
471.59	41.88
471.937	41.68
472.284	41.55
472.631	41.29
472.977	41.15
473.324	41.11
473.671	41.08
474.017	40.92
474.364	40.84
474.71	40.77
475.057	40.58
475.403	40.57
475.749	40.42
476.096	40.15
476.442	39.85
476.788	39.68
477.134	39.71
477.48	39.43
477.826	39.28
478.172	39.18
478.518	39.09
478.864	38.88
479.21	38.82
479.556	38.7
479.902	38.55
480.248	38.42
480.593	38.23
480.939	38.1
481.285	38.01
481.63	37.85
481.976	37.69
482.321	37.43
482.667	37.37
483.012	37.32
483.357	37.15
483.703	37.1
484.048	37.03
484.393	36.89
484.738	36.88
485.084	36.8
485.429	36.68
485.774	36.46
486.119	36.42
486.464	36.33
486.808	36.13
487.153	35.96
487.498	35.88
487.843	35.63
488.188	35.49
488.532	35.29
488.877	35.01
489.222	34.99
489.566	34.83
489.911	34.76
490.255	34.59
490.6	34.42
490.944	34.28
491.288	34.07
491.633	33.86
491.977	33.74
492.321	33.52
492.665	33.34
493.009	33.2
493.353	32.95
493.697	32.84
494.041	32.68
494.385	32.63
494.729	32.49
495.073	32.35
495.417	32.22
495.76	32.08
496.104	31.82
496.448	31.71
496.791	31.62
497.135	31.48
497.479	31.36
497.822	31.2
498.165	31.07
498.509	30.79
498.852	30.65
499.196	30.45
499.539	30.36
499.882	30.3
500.225	30.14
500.568	30.03
500.911	30.02
501.254	29.95
501.597	29.8
501.94	29.78
502.283	29.58
502.626	29.55
502.969	29.4
503.312	29.26
503.654	29.09
503.997	28.95
504.34	28.83
504.682	28.76
505.025	28.57
505.367	28.39
505.71	28.3
506.052	28.22
506.395	28.03
506.737	27.9
507.079	27.87
507.421	27.73
507.764	27.65
508.106	27.49
508.448	27.31
508.79	27.15
509.132	27.02
509.474	26.82
509.816	26.6
510.158	26.45
510.499	26.27
510.841	26.2
511.183	25.99
511.525	25.78
511.866	25.67
512.208	25.54
512.549	25.4
512.891	25.2
513.232	25.11
513.574	25.02
513.915	24.96
514.256	24.74
514.598	24.62
514.939	24.55
515.28	24.45
515.621	24.35
515.962	24.25
516.303	24.22
516.644	24.16
516.985	24.1
517.326	24.05
517.667	23.94
518.008	23.87
518.349	23.88
518.69	23.78
519.03	23.59
519.371	23.49
519.712	23.4
520.052	23.29
520.393	23.12
520.733	23.01
521.074	22.93
521.414	22.85
521.754	22.75
522.095	22.66
522.435	22.61
522.775	22.56
523.115	22.44
523.455	22.31
523.795	22.22
524.135	22.1
524.475	21.93
524.815	21.85
525.155	21.76
525.495	21.7
525.835	21.68
526.175	21.61
526.514	21.47
526.854	21.31
527.194	21.23
527.533	21.13
527.873	20.97
528.212	20.88
528.552	20.86
528.891	20.73
529.23	20.56
529.57	20.49
529.909	20.49
530.248	20.34
530.587	20.35
530.927	20.17
531.266	20.07
531.605	20.04
531.944	19.91
532.283	19.84
532.621	19.84
532.96	19.92
533.299	19.67
533.638	19.64
533.977	19.51
534.315	19.35
534.654	19.22
534.992	19.12
535.331	19.06
535.67	18.98
536.008	18.93
536.346	18.96
536.685	18.89
537.023	18.78
537.361	18.71
537.7	18.83
538.038	18.72
538.376	18.63
538.714	18.66
539.052	18.51
539.39	18.45
539.728	18.39
540.066	18.24
540.404	18.29
540.741	18.19
541.079	18.07
541.417	17.92
541.755	18.01
542.092	17.81
542.43	17.74
542.767	17.7
543.105	17.71
543.442	17.81
543.78	17.76
544.117	17.75
544.454	17.76
544.792	17.71
545.129	17.75
545.466	17.86
545.803	17.86
546.14	17.69
546.477	17.7
546.814	17.82
547.151	17.76
547.488	17.78
547.825	17.74
548.162	17.75
548.499	17.71
548.835	17.74
549.172	17.74
549.509	17.74
549.845	17.72
550.182	17.63
550.518	17.58
550.855	17.6
551.191	17.63
551.528	17.66
551.864	17.6
552.2	17.69
552.537	17.62
552.873	17.62
553.209	17.48
553.545	17.43
553.881	17.27
554.217	17.26
554.553	17.21
554.889	17.27
555.225	17.24
555.561	17.14
555.896	17.06
556.232	17.09
556.568	17.08
556.903	17.22
557.239	17.01
557.575	17.05
557.91	17.08
558.245	17.11
558.581	17.05
558.916	17.13
559.252	17.25
559.587	17.22
559.922	17.15
560.257	17.17
560.592	17.12
560.928	17.15
561.263	17.19
561.598	17.21
561.933	17.14
562.267	17.31
562.602	17.37
562.937	17.49
563.272	17.42
563.607	17.4
563.941	17.61
564.276	17.71
564.611	17.64
564.945	17.72
565.28	17.66
565.614	17.9
565.949	17.9
566.283	17.85
566.617	17.94
566.951	18.14
567.286	18.24
567.62	18.19
567.954	18.21
568.288	18.33
568.622	18.29
568.956	18.2
569.29	18.27
569.624	18.26
569.958	18.4
570.292	18.46
570.626	18.49
570.959	18.63
571.293	18.7
571.627	18.85
571.96	19.03
572.294	19.04
572.627	19.08
572.961	19.16
573.294	19.17
573.627	19.27
573.961	19.24
574.294	19.33
574.627	19.5
574.961	19.55
575.294	19.55
575.627	19.61
575.96	19.64
576.293	19.68
576.626	19.72
576.959	19.83
577.292	19.98
577.624	20.04
577.957	20.2
578.29	20.25
578.623	20.32
578.955	20.37
579.288	20.38
579.62	20.45
579.953	20.5
580.285	20.44
580.618	20.58
580.95	20.7
581.282	20.82
581.615	20.92
581.947	20.97
582.279	21.08
582.611	21.08
582.943	21.16
583.275	21.2
583.607	21.42
583.939	21.45
584.271	21.58
584.603	21.72
584.935	21.78
585.267	21.88
585.598	22.02
585.93	22.08
586.262	22.05
586.593	22.16
586.925	22.28
587.256	22.44
587.588	22.52
587.919	22.64
588.25	22.76
588.582	22.9
588.913	22.94
589.244	22.92
589.575	23.12
589.907	23.18
590.238	23.3
590.569	23.42
590.9	23.71
591.231	23.78
591.562	23.94
591.892	23.93
592.223	24.25
592.554	24.49
592.885	24.7
593.215	24.85
593.546	24.89
593.877	24.99
594.207	25.02
594.538	25.17
594.868	25.31
595.198	25.39
595.529	25.48
595.859	25.65
596.189	25.73
596.52	25.8
596.85	25.85
597.18	25.96
597.51	26.14
597.84	26.28
598.17	26.49
598.5	26.61
598.83	26.8
599.16	26.95
599.489	27.05
599.819	27.17
600.149	27.34
600.479	27.41
600.808	27.41
601.138	27.48
601.467	27.57
601.797	27.87
602.126	28.1
602.456	28.57
602.785	28.68
603.114	28.96
603.443	29.24
603.773	29.48
604.102	29.68
604.431	29.88
604.76	30.07
605.089	30.3
605.418	30.42
605.747	30.57
606.076	30.61
606.405	30.76
606.733	31.02
607.062	31.21
607.391	31.42
607.72	31.72
608.048	32.16
608.377	32.43
608.705	32.68
609.034	33.07
609.362	33.42
609.69	33.83
610.019	33.97
610.347	34.1
610.675	34.19
611.004	34.54
611.332	34.66
611.66	34.84
611.988	34.93
612.316	35.04
612.644	35.2
612.972	35.4
613.3	35.6
613.627	36.03
613.955	36.43
614.283	36.74
614.611	37.22
614.938	37.47
615.266	37.73
615.593	37.72
615.921	38
616.248	38.15
616.576	38.57
616.903	38.84
617.23	38.98
617.558	39.46
617.885	39.86
618.212	40.16
618.539	40.48
618.866	40.84
619.193	41.15
619.52	41.4
619.847	41.68
620.174	42.05
620.501	42.26
620.828	42.41
621.155	42.48
621.481	42.77
621.808	42.99
622.135	43.06
622.461	43.36
622.788	43.32
623.114	43.48
623.441	43.48
623.767	43.94
624.093	43.76
624.42	43.84
624.746	44.01
625.072	44.29
625.398	44.67
625.725	44.68
626.051	44.69
626.377	44.83
626.703	44.8
627.029	44.54
627.354	44.84
627.68	44.92
628.006	45.35
628.332	45.45
628.658	45.92
628.983	45.95
629.309	46.39
629.634	46.49
629.96	46.69
630.285	46.81
630.611	46.57
630.936	46.43
631.262	46.47
631.587	46.73
631.912	46.92
632.237	47.45
632.562	48.21
632.887	48.45
633.213	49
633.538	49.39
633.863	49.36
634.187	49.55
634.512	49.79
634.837	50.05
635.162	50.72
635.487	50.87
635.811	51.02
636.136	51.1
636.461	51.39
636.785	51.27
637.11	52.2
637.434	52.51
637.758	52.8
638.083	52.71
638.407	53.05
638.731	54.05
639.056	54.67
639.38	54.66
639.704	54.53
640.028	55.35
640.352	55.75
640.676	55.59
641	55.29
641.324	55.44
641.648	55.47
641.972	55.95
642.295	56.64
642.619	56.94
642.943	57.24
643.266	57.27
643.59	57.34
643.913	57.84
644.237	57.49
644.56	57.6
644.884	58.4
645.207	58.23
645.53	58.23
645.854	58.58
646.177	58.85
646.5	58.94
646.823	58.4
647.146	58.52
647.469	59.24
647.792	59.53
648.115	58.76
648.438	59.17
648.761	61.47
649.084	62.01
649.406	61.82
649.729	60.99
650.052	60.55
650.374	60.32
650.697	60.44
651.019	60.54
651.342	60.59
651.664	60.47
651.987	60.45
652.309	60.59
652.631	60.63
652.953	60.6
653.276	60.55
653.598	60.53
653.92	60.45
654.242	60.45
654.564	60.45
654.886	60.5
655.208	60.32
655.53	60.26
655.851	60.25
656.173	60.48
656.495	60.42
656.816	59.53
657.138	59.01
657.46	58.57
657.781	59.45
658.103	60.39
658.424	60.81
658.746	61.12
659.067	61.14
