Data from T1_Reflection__145__15-21-54-843.txt Node

Date: Thu Jun 03 15:21:54 CEST 2021
User: mabdelazizm
Spectrometer: FLMS18565
Trigger mode: 0
Integration Time (sec): 2.000000E0
Scans to average: 1
Electric dark correction enabled: true
Nonlinearity correction enabled: false
Boxcar width: 12
XAxis mode: Wavelengths
Number of Pixels in Spectrum: 2048
>>>>>Begin Spectral Data<<<<<
179.071	44.07
179.452	85.79
179.833	80.76
180.214	92.49
180.595	87.95
180.977	91.98
181.358	74.09
181.739	73.81
182.12	65.71
182.501	46.34
182.882	33.53
183.262	-1.01
183.643	7.61
184.024	16.19
184.405	17.83
184.786	6.59
185.166	1.21
185.547	3.7
185.927	-6.35
186.308	-2.58
186.689	4.76
187.069	5.44
187.449	9.99
187.83	-1.2
188.21	-2.03
188.59	-3.32
188.971	-7.75
189.351	-6.25
189.731	-8.98
190.111	-7.53
190.491	-8.4
190.871	-3.39
191.251	0.72
191.631	1.26
192.011	4.14
192.391	6.09
192.771	9.06
193.151	8.01
193.531	6.25
193.91	2.45
194.29	3.47
194.67	3.88
195.049	2.74
195.429	3.52
195.808	1.22
196.188	-0.8
196.567	-0.85
196.946	-0.56
197.326	2.52
197.705	2.98
198.084	6.78
198.464	5.7
198.843	5.81
199.222	6.06
199.601	8.33
199.98	8.55
200.359	8.83
200.738	7.89
201.117	8.18
201.496	6.7
201.875	7.34
202.254	8
202.632	7.9
203.011	6.66
203.39	9.47
203.768	9.92
204.147	8.97
204.525	8.23
204.904	9.5
205.282	11.2
205.661	11.73
206.039	13.27
206.418	11.97
206.796	13.56
207.174	13.94
207.552	12.07
207.931	9.9
208.309	9.16
208.687	8.68
209.065	9.48
209.443	10.06
209.821	9.49
210.199	9.64
210.577	9.54
210.954	11.28
211.332	10.78
211.71	9.45
212.088	9.22
212.465	9.76
212.843	8.92
213.221	8.05
213.598	8.54
213.976	10.51
214.353	9.16
214.731	9.24
215.108	8.65
215.485	7.63
215.863	8
216.24	7.32
216.617	7.91
216.994	7.42
217.371	8.26
217.749	7.44
218.126	7.95
218.503	7.69
218.88	7.02
219.256	7.57
219.633	6.18
220.01	5.27
220.387	5.6
220.764	4.88
221.14	5.09
221.517	5.16
221.894	5.19
222.27	5.35
222.647	5.61
223.023	5.42
223.4	4.95
223.776	5.31
224.153	5.39
224.529	5.61
224.905	6.12
225.282	6.19
225.658	6.02
226.034	5.47
226.41	5.91
226.786	6.25
227.162	6.33
227.538	5.84
227.914	5.29
228.29	5.2
228.666	4.76
229.042	4.78
229.418	4.94
229.793	4.64
230.169	4.78
230.545	4.64
230.92	4.68
231.296	4.55
231.672	4.47
232.047	4.21
232.422	4.25
232.798	4.23
233.173	4.19
233.549	3.89
233.924	3.8
234.299	3.51
234.674	3.5
235.05	3.26
235.425	3.3
235.8	3.18
236.175	3.09
236.55	3.09
236.925	3.08
237.3	3.05
237.675	3.09
238.049	3.19
238.424	3.18
238.799	3.26
239.174	3.21
239.548	3.17
239.923	3.13
240.297	3.15
240.672	3.25
241.046	3.21
241.421	3.31
241.795	3.29
242.17	3.34
242.544	3.34
242.918	3.5
243.293	3.51
243.667	3.61
244.041	3.58
244.415	3.61
244.789	3.6
245.163	3.51
245.537	3.48
245.911	3.46
246.285	3.47
246.659	3.53
247.033	3.51
247.406	3.48
247.78	3.54
248.154	3.46
248.528	3.45
248.901	3.45
249.275	3.48
249.648	3.39
250.022	3.32
250.395	3.3
250.769	3.27
251.142	3.32
251.515	3.24
251.888	3.21
252.262	3.11
252.635	3.08
253.008	2.98
253.381	3
253.754	3.06
254.127	3.02
254.5	3.04
254.873	3.02
255.246	3.05
255.619	3.07
255.992	3.05
256.364	3
256.737	2.98
257.11	2.95
257.483	2.96
257.855	2.95
258.228	2.96
258.6	2.92
258.973	2.95
259.345	2.98
259.718	2.94
260.09	2.92
260.462	2.9
260.834	2.86
261.207	2.84
261.579	2.86
261.951	2.83
262.323	2.8
262.695	2.78
263.067	2.73
263.439	2.74
263.811	2.75
264.183	2.76
264.555	2.68
264.927	2.68
265.298	2.67
265.67	2.7
266.042	2.7
266.413	2.69
266.785	2.71
267.156	2.76
267.528	2.75
267.899	2.76
268.271	2.72
268.642	2.69
269.013	2.66
269.385	2.67
269.756	2.58
270.127	2.57
270.498	2.57
270.87	2.5
271.241	2.5
271.612	2.56
271.983	2.55
272.354	2.55
272.724	2.56
273.095	2.55
273.466	2.58
273.837	2.6
274.208	2.59
274.578	2.6
274.949	2.61
275.32	2.55
275.69	2.55
276.061	2.49
276.431	2.41
276.802	2.43
277.172	2.43
277.542	2.45
277.913	2.44
278.283	2.41
278.653	2.36
279.023	2.43
279.394	2.46
279.764	2.41
280.134	2.44
280.504	2.4
280.874	2.34
281.244	2.31
281.614	2.31
281.983	2.3
282.353	2.3
282.723	2.24
283.093	2.23
283.462	2.18
283.832	2.18
284.202	2.19
284.571	2.24
284.941	2.27
285.31	2.25
285.68	2.23
286.049	2.18
286.418	2.16
286.788	2.21
287.157	2.14
287.526	2.23
287.895	2.2
288.264	2.18
288.633	2.12
289.002	2.09
289.371	2.11
289.74	2.12
290.109	2.14
290.478	2.13
290.847	2.06
291.216	2.04
291.585	1.99
291.953	1.94
292.322	1.93
292.691	1.89
293.059	1.79
293.428	1.74
293.796	1.73
294.165	1.64
294.533	1.64
294.901	1.7
295.27	1.71
295.638	1.74
296.006	1.62
296.374	1.67
296.743	1.62
297.111	1.67
297.479	1.61
297.847	1.61
298.215	1.61
298.583	1.58
298.95	1.6
299.318	1.61
299.686	1.59
300.054	1.64
300.422	1.61
300.789	1.63
301.157	1.7
301.525	1.72
301.892	1.76
302.26	1.87
302.627	1.86
302.994	1.85
303.362	1.91
303.729	1.92
304.097	1.9
304.464	1.86
304.831	1.88
305.198	1.89
305.565	1.91
305.932	1.89
306.299	1.87
306.666	1.86
307.033	1.93
307.4	2.04
307.767	1.99
308.134	1.93
308.501	1.93
308.867	1.96
309.234	1.97
309.601	1.97
309.967	1.98
310.334	1.98
310.701	1.93
311.067	1.87
311.433	1.81
311.8	1.81
312.166	1.81
312.533	1.79
312.899	1.78
313.265	1.74
313.631	1.75
313.997	1.69
314.363	1.73
314.729	1.71
315.096	1.7
315.461	1.69
315.827	1.7
316.193	1.67
316.559	1.55
316.925	1.54
317.291	1.59
317.656	1.52
318.022	1.49
318.388	1.52
318.753	1.47
319.119	1.43
319.484	1.45
319.85	1.44
320.215	1.51
320.581	1.49
320.946	1.48
321.311	1.46
321.676	1.48
322.042	1.5
322.407	1.57
322.772	1.52
323.137	1.6
323.502	1.59
323.867	1.52
324.232	1.56
324.597	1.57
324.962	1.57
325.327	1.56
325.691	1.66
326.056	1.71
326.421	1.77
326.785	1.87
327.15	1.88
327.514	1.77
327.879	1.84
328.243	1.85
328.608	1.86
328.972	1.92
329.337	1.94
329.701	2.01
330.065	2.02
330.429	2.01
330.794	1.96
331.158	1.94
331.522	1.86
331.886	1.89
332.25	1.8
332.614	1.83
332.978	1.87
333.342	1.84
333.705	1.8
334.069	1.74
334.433	1.78
334.797	1.74
335.16	1.71
335.524	1.71
335.887	1.63
336.251	1.63
336.614	1.74
336.978	1.66
337.341	1.68
337.705	1.66
338.068	1.72
338.431	1.65
338.794	1.57
339.158	1.51
339.521	1.51
339.884	1.51
340.247	1.54
340.61	1.52
340.973	1.53
341.336	1.51
341.699	1.45
342.062	1.45
342.424	1.43
342.787	1.45
343.15	1.53
343.512	1.44
343.875	1.42
344.238	1.48
344.6	1.49
344.963	1.53
345.325	1.52
345.688	1.46
346.05	1.51
346.412	1.51
346.775	1.48
347.137	1.36
347.499	1.37
347.861	1.5
348.223	1.53
348.585	1.54
348.947	1.56
349.309	1.48
349.671	1.54
350.033	1.58
350.395	1.6
350.757	1.7
351.118	1.67
351.48	1.73
351.842	1.7
352.203	1.67
352.565	1.76
352.927	1.76
353.288	1.69
353.65	1.66
354.011	1.67
354.372	1.72
354.734	1.73
355.095	1.71
355.456	1.72
355.817	1.7
356.179	1.69
356.54	1.78
356.901	1.66
357.262	1.59
357.623	1.66
357.984	1.66
358.345	1.74
358.705	1.68
359.066	1.61
359.427	1.62
359.788	1.56
360.148	1.6
360.509	1.59
360.87	1.58
361.23	1.54
361.591	1.5
361.951	1.51
362.312	1.55
362.672	1.48
363.032	1.5
363.393	1.51
363.753	1.52
364.113	1.51
364.473	1.51
364.833	1.5
365.193	1.53
365.553	1.52
365.913	1.51
366.273	1.51
366.633	1.46
366.993	1.43
367.353	1.39
367.713	1.44
368.072	1.39
368.432	1.41
368.792	1.38
369.151	1.35
369.511	1.33
369.87	1.39
370.23	1.4
370.589	1.42
370.949	1.39
371.308	1.37
371.667	1.4
372.027	1.31
372.386	1.26
372.745	1.26
373.104	1.3
373.463	1.27
373.822	1.24
374.181	1.2
374.54	1.15
374.899	1.26
375.258	1.35
375.617	1.36
375.975	1.42
376.334	1.37
376.693	1.43
377.052	1.5
377.41	1.48
377.769	1.57
378.127	1.63
378.486	1.71
378.844	1.73
379.202	1.8
379.561	1.86
379.919	1.84
380.277	1.86
380.636	1.84
380.994	1.85
381.352	1.89
381.71	1.95
382.068	2.02
382.426	2.05
382.784	2.13
383.142	2.24
383.5	2.28
383.857	2.32
384.215	2.35
384.573	2.37
384.931	2.36
385.288	2.4
385.646	2.43
386.003	2.45
386.361	2.53
386.718	2.59
387.076	2.63
387.433	2.71
387.791	2.74
388.148	2.83
388.505	2.89
388.862	3.11
389.22	3.22
389.577	3.41
389.934	3.58
390.291	3.65
390.648	3.81
391.005	4.05
391.362	4.17
391.718	4.27
392.075	4.4
392.432	4.58
392.789	4.71
393.145	4.94
393.502	5.18
393.859	5.43
394.215	5.73
394.572	5.98
394.928	6.31
395.285	6.55
395.641	6.8
395.997	7.15
396.354	7.41
396.71	7.77
397.066	8.14
397.422	8.47
397.778	8.84
398.134	9.22
398.491	9.61
398.846	10.06
399.202	10.55
399.558	10.96
399.914	11.27
400.27	11.8
400.626	12.38
400.981	12.95
401.337	13.46
401.693	14
402.048	14.51
402.404	15.17
402.759	15.78
403.115	16.43
403.47	17.06
403.826	17.67
404.181	18.37
404.536	18.94
404.892	19.54
405.247	20.2
405.602	20.93
405.957	21.52
406.312	22.11
406.667	22.81
407.022	23.53
407.377	24.23
407.732	24.81
408.087	25.56
408.442	26.25
408.796	26.94
409.151	27.69
409.506	28.42
409.86	29.15
410.215	29.94
410.57	30.65
410.924	31.37
411.279	31.98
411.633	32.7
411.987	33.36
412.342	34.01
412.696	34.71
413.05	35.46
413.404	36.22
413.758	37.05
414.113	37.66
414.467	38.21
414.821	38.79
415.175	39.59
415.529	40.14
415.882	40.66
416.236	41.24
416.59	41.92
416.944	42.42
417.298	43.02
417.651	43.57
418.005	43.99
418.358	44.45
418.712	44.84
419.065	45.22
419.419	45.64
419.772	46.11
420.126	46.44
420.479	46.82
420.832	47.26
421.185	47.68
421.539	47.99
421.892	48.26
422.245	48.5
422.598	48.64
422.951	48.95
423.304	49.25
423.657	49.63
424.01	49.92
424.363	50.28
424.715	50.75
425.068	51.1
425.421	51.3
425.773	51.57
426.126	51.92
426.479	52.17
426.831	52.55
427.184	52.83
427.536	53
427.889	53.25
428.241	53.54
428.593	53.79
428.945	54.07
429.298	54.28
429.65	54.47
430.002	54.58
430.354	54.88
430.706	55.01
431.058	55.29
431.41	55.66
431.762	55.87
432.114	56.06
432.466	56.15
432.817	56.26
433.169	56.47
433.521	56.51
433.872	56.61
434.224	56.87
434.576	57.02
434.927	57
435.279	57.19
435.63	57.3
435.981	57.38
436.333	57.56
436.684	57.55
437.035	57.6
437.387	57.6
437.738	57.61
438.089	57.65
438.44	57.77
438.791	57.97
439.142	57.93
439.493	58.12
439.844	58.1
440.195	58
440.545	58.04
440.896	58.23
441.247	58.3
441.598	58.39
441.948	58.36
442.299	58.48
442.649	58.52
443	58.55
443.35	58.66
443.701	58.78
444.051	58.83
444.401	58.79
444.752	58.93
445.102	58.94
445.452	59.18
445.802	59.32
446.152	59.51
446.502	59.8
446.852	59.94
447.202	59.81
447.552	59.87
447.902	60.08
448.252	59.97
448.602	60.54
448.952	60.63
449.301	60.7
449.651	60.76
450.001	60.89
450.35	61
450.7	61.01
451.049	60.9
451.399	61.04
451.748	61.03
452.097	60.99
452.447	60.98
452.796	60.9
453.145	60.89
453.494	60.7
453.843	60.77
454.193	60.55
454.542	60.57
454.891	60.57
455.239	60.37
455.588	60.28
455.937	60.43
456.286	60.37
456.635	60.22
456.984	60.31
457.332	59.83
457.681	59.9
458.03	59.91
458.378	59.8
458.727	59.79
459.075	59.73
459.423	59.98
459.772	60.19
460.12	60.02
460.468	59.9
460.817	59.83
461.165	59.8
461.513	59.7
461.861	59.85
462.209	59.85
462.557	59.78
462.905	59.84
463.253	59.73
463.601	59.63
463.949	59.64
464.297	59.6
464.644	59.48
464.992	59.46
465.34	59.45
465.687	59.59
466.035	59.44
466.383	59.39
466.73	59.24
467.078	59.19
467.425	59.04
467.772	59.08
468.12	58.76
468.467	58.51
468.814	58.61
469.161	58.57
469.508	58.62
469.856	58.6
470.203	58.6
470.55	58.45
470.897	58.39
471.243	58.42
471.59	58.31
471.937	58.22
472.284	58.17
472.631	57.99
472.977	57.88
473.324	57.81
473.671	57.69
474.017	57.58
474.364	57.44
474.71	57.36
475.057	57.19
475.403	57.05
475.749	56.88
476.096	56.67
476.442	56.42
476.788	56.45
477.134	56.36
477.48	56.09
477.826	55.92
478.172	55.87
478.518	55.67
478.864	55.55
479.21	55.5
479.556	55.4
479.902	55.27
480.248	55.21
480.593	55.06
480.939	54.9
481.285	54.84
481.63	54.69
481.976	54.56
482.321	54.52
482.667	54.42
483.012	54.2
483.357	54.14
483.703	54
484.048	53.97
484.393	53.91
484.738	53.99
485.084	53.83
485.429	53.69
485.774	53.61
486.119	53.58
486.464	53.55
486.808	53.33
487.153	53.27
487.498	53.17
487.843	52.95
488.188	52.9
488.532	52.65
488.877	52.53
489.222	52.49
489.566	52.35
489.911	52.23
490.255	52.19
490.6	52.07
490.944	51.83
491.288	51.66
491.633	51.53
491.977	51.33
492.321	51.24
492.665	51.09
493.009	51.03
493.353	50.78
493.697	50.71
494.041	50.55
494.385	50.45
494.729	50.34
495.073	50.26
495.417	50.19
495.76	50.09
496.104	49.97
496.448	49.92
496.791	49.8
497.135	49.74
497.479	49.5
497.822	49.37
498.165	49.29
498.509	49.13
498.852	48.99
499.196	48.91
499.539	48.83
499.882	48.76
500.225	48.71
500.568	48.63
500.911	48.49
501.254	48.41
501.597	48.18
501.94	48.18
502.283	48.07
502.626	47.97
502.969	47.85
503.312	47.73
503.654	47.58
503.997	47.43
504.34	47.29
504.682	47.24
505.025	47.05
505.367	46.86
505.71	46.71
506.052	46.65
506.395	46.51
506.737	46.26
507.079	46.18
507.421	46.06
507.764	45.87
508.106	45.73
508.448	45.64
508.79	45.41
509.132	45.21
509.474	45.03
509.816	44.8
510.158	44.68
510.499	44.54
510.841	44.44
511.183	44.33
511.525	44.2
511.866	44.14
512.208	43.95
512.549	43.82
512.891	43.61
513.232	43.46
513.574	43.42
513.915	43.35
514.256	43.24
514.598	43.13
514.939	43.07
515.28	42.92
515.621	42.77
515.962	42.66
516.303	42.51
516.644	42.31
516.985	42.09
517.326	42.04
517.667	41.96
518.008	41.9
518.349	41.89
518.69	41.77
519.03	41.69
519.371	41.63
519.712	41.43
520.052	41.25
520.393	41.03
520.733	40.96
521.074	40.82
521.414	40.76
521.754	40.65
522.095	40.46
522.435	40.27
522.775	40.26
523.115	40.09
523.455	39.96
523.795	40.08
524.135	40.02
524.475	39.9
524.815	39.77
525.155	39.79
525.495	39.65
525.835	39.64
526.175	39.55
526.514	39.47
526.854	39.35
527.194	39.23
527.533	39.07
527.873	38.9
528.212	38.93
528.552	38.89
528.891	38.79
529.23	38.77
529.57	38.73
529.909	38.64
530.248	38.46
530.587	38.49
530.927	38.52
531.266	38.29
531.605	38.22
531.944	37.92
532.283	37.65
532.621	37.53
532.96	37.53
533.299	37.56
533.638	37.5
533.977	37.43
534.315	37.29
534.654	37.12
534.992	37.07
535.331	36.88
535.67	36.86
536.008	36.67
536.346	36.62
536.685	36.48
537.023	36.23
537.361	36.09
537.7	35.91
538.038	35.85
538.376	35.73
538.714	35.78
539.052	35.63
539.39	35.46
539.728	35.41
540.066	35.27
540.404	35.27
540.741	35.19
541.079	35.09
541.417	35.03
541.755	34.89
542.092	34.68
542.43	34.69
542.767	34.59
543.105	34.58
543.442	34.39
543.78	34.52
544.117	34.51
544.454	34.57
544.792	34.49
545.129	34.46
545.466	34.63
545.803	34.6
546.14	34.59
546.477	34.55
546.814	34.62
547.151	34.4
547.488	34.32
547.825	34.26
548.162	34.3
548.499	34.28
548.835	34.3
549.172	34.27
549.509	34.31
549.845	34.09
550.182	34.08
550.518	34.08
550.855	34.03
551.191	34.14
551.528	34.21
551.864	34.39
552.2	34.45
552.537	34.44
552.873	34.4
553.209	34.35
553.545	34.23
553.881	34.15
554.217	34.25
554.553	34.3
554.889	34.29
555.225	34.21
555.561	34.33
555.896	34.32
556.232	34.38
556.568	34.3
556.903	34.47
557.239	34.49
557.575	34.52
557.91	34.45
558.245	34.57
558.581	34.51
558.916	34.62
559.252	34.82
559.587	34.76
559.922	34.73
560.257	34.64
560.592	34.48
560.928	34.47
561.263	34.57
561.598	34.58
561.933	34.69
562.267	34.88
562.602	34.89
562.937	34.97
563.272	34.92
563.607	34.91
563.941	34.94
564.276	35.14
564.611	35.09
564.945	35.14
565.28	35.01
565.614	35.13
565.949	35.18
566.283	35.28
566.617	35.34
566.951	35.46
567.286	35.47
567.62	35.41
567.954	35.38
568.288	35.57
568.622	35.53
568.956	35.53
569.29	35.51
569.624	35.38
569.958	35.48
570.292	35.57
570.626	35.49
570.959	35.61
571.293	35.67
571.627	35.86
571.96	36.05
572.294	36.08
572.627	35.95
572.961	35.97
573.294	35.97
573.627	36.05
573.961	36.09
574.294	36.24
574.627	36.39
574.961	36.44
575.294	36.45
575.627	36.45
575.96	36.48
576.293	36.48
576.626	36.42
576.959	36.55
577.292	36.64
577.624	36.73
577.957	36.98
578.29	37.04
578.623	37.01
578.955	37.13
579.288	37.15
579.62	37.19
579.953	37.21
580.285	37.16
580.618	37.26
580.95	37.39
581.282	37.56
581.615	37.72
581.947	37.83
582.279	37.83
582.611	37.77
582.943	37.78
583.275	37.76
583.607	38
583.939	38.07
584.271	38.18
584.603	38.35
584.935	38.39
585.267	38.36
585.598	38.5
585.93	38.63
586.262	38.48
586.593	38.61
586.925	38.77
587.256	38.81
587.588	38.89
587.919	38.93
588.25	39
588.582	39.16
588.913	39.26
589.244	39.39
589.575	39.51
589.907	39.56
590.238	39.72
590.569	39.97
590.9	40.13
591.231	40.15
591.562	40.31
591.892	40.35
592.223	40.54
592.554	40.76
592.885	40.93
593.215	41.11
593.546	41.32
593.877	41.37
594.207	41.41
594.538	41.64
594.868	41.64
595.198	41.72
595.529	41.94
595.859	42.06
596.189	42.19
596.52	42.37
596.85	42.42
597.18	42.57
597.51	42.64
597.84	42.69
598.17	42.89
598.5	42.87
598.83	42.98
599.16	43.12
599.489	43.34
599.819	43.6
600.149	43.58
600.479	43.86
600.808	43.76
601.138	43.94
601.467	44.1
601.797	44.37
602.126	44.63
602.456	44.85
602.785	44.97
603.114	45.26
603.443	45.48
603.773	45.61
604.102	45.81
604.431	45.96
604.76	45.99
605.089	46.28
605.418	46.45
605.747	46.77
606.076	46.98
606.405	47.13
606.733	47.55
607.062	47.73
607.391	48.03
607.72	48.2
608.048	48.31
608.377	48.75
608.705	48.99
609.034	49.46
609.362	49.57
609.69	49.91
610.019	50.08
610.347	50.36
610.675	50.51
611.004	50.87
611.332	51.17
611.66	51.41
611.988	51.74
612.316	51.97
612.644	52.23
612.972	52.44
613.3	52.43
613.627	52.72
613.955	52.83
614.283	53.1
614.611	53.39
614.938	53.5
615.266	53.7
615.593	53.94
615.921	54.22
616.248	54.63
616.576	54.81
616.903	54.77
617.23	55.1
617.558	55.73
617.885	55.9
618.212	56.04
618.539	56.22
618.866	56.64
619.193	56.67
619.52	56.78
619.847	56.91
620.174	56.95
620.501	57.17
620.828	57.29
621.155	57.37
621.481	57.62
621.808	57.78
622.135	58.15
622.461	58.13
622.788	58.2
623.114	58.41
623.441	58.43
623.767	58.53
624.093	58.77
624.42	58.9
624.746	59.64
625.072	59.91
625.398	60.13
625.725	60.19
626.051	60.47
626.377	60.59
626.703	60.52
627.029	60.69
627.354	61.13
627.68	61.11
628.006	61.21
628.332	61.56
628.658	61.71
628.983	61.42
629.309	61.96
629.634	61.85
629.96	62.03
630.285	61.87
630.611	61.76
630.936	61.95
631.262	61.98
631.587	62.23
631.912	62.03
632.237	62.13
632.562	62.56
632.887	62.56
633.213	63.16
633.538	63.19
633.863	63.13
634.187	63.04
634.512	63.11
634.837	63.31
635.162	63.13
635.487	63.54
635.811	63.76
636.136	64.15
636.461	64.05
636.785	64.02
637.11	65.12
637.434	65.25
637.758	66.11
638.083	66.46
638.407	66.74
638.731	67.21
639.056	66.87
639.38	66.72
639.704	66.72
640.028	67.77
640.352	67.9
640.676	67.46
641	66.95
641.324	66.69
641.648	65.88
641.972	65.61
642.295	66.14
642.619	66.6
642.943	66.66
643.266	66.76
643.59	66.27
643.913	66.81
644.237	66.76
644.56	66.81
644.884	66.88
645.207	66.91
645.53	66.76
645.854	66.93
646.177	66.56
646.5	66.66
646.823	66.59
647.146	66.74
647.469	67.32
647.792	67.97
648.115	67.29
648.438	67.89
648.761	71.11
649.084	72.23
649.406	71.83
649.729	70.89
650.052	70.31
650.374	70.45
650.697	70.61
651.019	70.65
651.342	70.89
651.664	70.86
651.987	70.74
652.309	70.82
652.631	70.75
652.953	70.96
653.276	70.89
653.598	70.79
653.92	70.66
654.242	70.73
654.564	70.71
654.886	70.72
655.208	70.8
655.53	70.64
655.851	70.43
656.173	70.57
656.495	70.41
656.816	69.05
657.138	67.85
657.46	67.37
657.781	68.25
658.103	70.01
658.424	69.37
658.746	68.93
659.067	68.75
