Data from T1_Reflection__90__14-27-00-948.txt Node

Date: Thu Jun 03 14:27:00 CEST 2021
User: mabdelazizm
Spectrometer: FLMS18565
Trigger mode: 0
Integration Time (sec): 2.000000E0
Scans to average: 1
Electric dark correction enabled: true
Nonlinearity correction enabled: false
Boxcar width: 12
XAxis mode: Wavelengths
Number of Pixels in Spectrum: 2048
>>>>>Begin Spectral Data<<<<<
179.071	104.23
179.452	140.26
179.833	123.43
180.214	114.45
180.595	110.42
180.977	119.52
181.358	111.63
181.739	92.97
182.12	91.48
182.501	67.21
182.882	32.17
183.262	23.62
183.643	13.12
184.024	-5.22
184.405	15
184.786	10.75
185.166	21.31
185.547	1.04
185.927	5.71
186.308	2.26
186.689	13.25
187.069	12.75
187.449	16.17
187.83	16.36
188.21	10.98
188.59	4.53
188.971	0.69
189.351	-1.54
189.731	-2.33
190.111	1.13
190.491	-3.69
190.871	1.29
191.251	3.72
191.631	4.46
192.011	8.95
192.391	13.51
192.771	16.85
193.151	16.94
193.531	17.33
193.91	15.9
194.29	14.53
194.67	12.72
195.049	14.45
195.429	11.56
195.808	9.99
196.188	8.08
196.567	5.99
196.946	6.3
197.326	6.15
197.705	8.85
198.084	13.45
198.464	11.49
198.843	12.6
199.222	12.71
199.601	14.85
199.98	16.19
200.359	15.33
200.738	16.47
201.117	15.98
201.496	15.09
201.875	12.57
202.254	9.95
202.632	9.23
203.011	8.87
203.39	7.62
203.768	9.05
204.147	8.44
204.525	8.63
204.904	9.48
205.282	11.02
205.661	10.36
206.039	12.46
206.418	11.76
206.796	13.5
207.174	12.95
207.552	11.55
207.931	10.62
208.309	10.28
208.687	9.61
209.065	8.74
209.443	9.06
209.821	8.38
210.199	9.08
210.577	9.16
210.954	8.95
211.332	9.86
211.71	9.53
212.088	10.37
212.465	9.74
212.843	9.89
213.221	9.94
213.598	10.48
213.976	10.88
214.353	9.92
214.731	10.09
215.108	10.4
215.485	9.35
215.863	8.97
216.24	7.8
216.617	7.72
216.994	7.53
217.371	7.03
217.749	5.66
218.126	6.5
218.503	5.97
218.88	5.85
219.256	5.85
219.633	4.87
220.01	4.35
220.387	5.55
220.764	4.85
221.14	4.88
221.517	4.77
221.894	5.14
222.27	4.68
222.647	3.85
223.023	2.98
223.4	2.67
223.776	3.04
224.153	2.89
224.529	2.61
224.905	3.24
225.282	3.3
225.658	3.2
226.034	2.75
226.41	2.88
226.786	3.37
227.162	3.66
227.538	3.28
227.914	3.34
228.29	3.18
228.666	3.04
229.042	2.97
229.418	3.02
229.793	2.7
230.169	2.91
230.545	2.87
230.92	2.92
231.296	2.75
231.672	2.64
232.047	2.69
232.422	2.83
232.798	2.64
233.173	2.6
233.549	2.46
233.924	2.51
234.299	2.18
234.674	2.17
235.05	2.05
235.425	2.06
235.8	2.02
236.175	1.87
236.55	1.95
236.925	1.9
237.3	1.85
237.675	1.86
238.049	1.94
238.424	1.98
238.799	1.99
239.174	1.92
239.548	1.88
239.923	1.82
240.297	1.71
240.672	1.81
241.046	1.88
241.421	1.89
241.795	1.87
242.17	1.89
242.544	1.9
242.918	1.93
243.293	1.94
243.667	1.97
244.041	2
244.415	2.01
244.789	1.99
245.163	1.93
245.537	1.95
245.911	1.83
246.285	1.82
246.659	1.78
247.033	1.76
247.406	1.75
247.78	1.71
248.154	1.7
248.528	1.68
248.901	1.62
249.275	1.63
249.648	1.65
250.022	1.61
250.395	1.56
250.769	1.59
251.142	1.58
251.515	1.57
251.888	1.55
252.262	1.54
252.635	1.48
253.008	1.42
253.381	1.38
253.754	1.37
254.127	1.4
254.5	1.37
254.873	1.41
255.246	1.49
255.619	1.55
255.992	1.54
256.364	1.53
256.737	1.48
257.11	1.46
257.483	1.44
257.855	1.47
258.228	1.48
258.6	1.47
258.973	1.46
259.345	1.46
259.718	1.43
260.09	1.37
260.462	1.43
260.834	1.43
261.207	1.41
261.579	1.39
261.951	1.42
262.323	1.44
262.695	1.41
263.067	1.41
263.439	1.41
263.811	1.44
264.183	1.41
264.555	1.4
264.927	1.39
265.298	1.42
265.67	1.4
266.042	1.43
266.413	1.38
266.785	1.39
267.156	1.35
267.528	1.37
267.899	1.39
268.271	1.37
268.642	1.38
269.013	1.39
269.385	1.41
269.756	1.34
270.127	1.32
270.498	1.31
270.87	1.28
271.241	1.24
271.612	1.29
271.983	1.31
272.354	1.33
272.724	1.3
273.095	1.29
273.466	1.27
273.837	1.24
274.208	1.19
274.578	1.17
274.949	1.18
275.32	1.15
275.69	1.17
276.061	1.14
276.431	1.1
276.802	1.11
277.172	1.13
277.542	1.12
277.913	1.1
278.283	1.07
278.653	1.03
279.023	1.04
279.394	1.06
279.764	1.06
280.134	1.05
280.504	1.03
280.874	0.98
281.244	0.95
281.614	0.92
281.983	0.96
282.353	0.97
282.723	0.98
283.093	0.95
283.462	0.9
283.832	0.89
284.202	0.92
284.571	0.93
284.941	0.96
285.31	0.93
285.68	0.95
286.049	0.94
286.418	0.87
286.788	0.93
287.157	0.89
287.526	0.97
287.895	0.98
288.264	0.98
288.633	0.92
289.002	0.93
289.371	0.97
289.74	1
290.109	1.03
290.478	1.02
290.847	1.02
291.216	1.01
291.585	0.96
291.953	0.94
292.322	0.95
292.691	1
293.059	1.01
293.428	0.98
293.796	0.97
294.165	0.96
294.533	0.99
294.901	1
295.27	0.98
295.638	1.02
296.006	0.9
296.374	0.92
296.743	0.87
297.111	0.85
297.479	0.78
297.847	0.8
298.215	0.78
298.583	0.74
298.95	0.73
299.318	0.68
299.686	0.66
300.054	0.74
300.422	0.71
300.789	0.74
301.157	0.74
301.525	0.74
301.892	0.72
302.26	0.74
302.627	0.8
302.994	0.78
303.362	0.77
303.729	0.79
304.097	0.8
304.464	0.81
304.831	0.84
305.198	0.86
305.565	0.87
305.932	0.82
306.299	0.82
306.666	0.86
307.033	0.85
307.4	0.87
307.767	0.84
308.134	0.8
308.501	0.82
308.867	0.83
309.234	0.76
309.601	0.74
309.967	0.75
310.334	0.76
310.701	0.76
311.067	0.69
311.433	0.67
311.8	0.56
312.166	0.59
312.533	0.58
312.899	0.58
313.265	0.56
313.631	0.55
313.997	0.5
314.363	0.53
314.729	0.53
315.096	0.57
315.461	0.6
315.827	0.62
316.193	0.65
316.559	0.62
316.925	0.63
317.291	0.66
317.656	0.66
318.022	0.69
318.388	0.72
318.753	0.67
319.119	0.62
319.484	0.61
319.85	0.55
320.215	0.65
320.581	0.6
320.946	0.62
321.311	0.57
321.676	0.61
322.042	0.59
322.407	0.62
322.772	0.59
323.137	0.69
323.502	0.67
323.867	0.59
324.232	0.6
324.597	0.61
324.962	0.58
325.327	0.52
325.691	0.56
326.056	0.53
326.421	0.51
326.785	0.5
327.15	0.49
327.514	0.41
327.879	0.51
328.243	0.55
328.608	0.57
328.972	0.62
329.337	0.61
329.701	0.69
330.065	0.75
330.429	0.77
330.794	0.72
331.158	0.74
331.522	0.65
331.886	0.67
332.25	0.56
332.614	0.6
332.978	0.62
333.342	0.6
333.705	0.55
334.069	0.51
334.433	0.59
334.797	0.54
335.16	0.55
335.524	0.62
335.887	0.62
336.251	0.61
336.614	0.63
336.978	0.56
337.341	0.49
337.705	0.46
338.068	0.56
338.431	0.55
338.794	0.49
339.158	0.39
339.521	0.4
339.884	0.38
340.247	0.39
340.61	0.41
340.973	0.44
341.336	0.43
341.699	0.35
342.062	0.41
342.424	0.36
342.787	0.42
343.15	0.49
343.512	0.41
343.875	0.43
344.238	0.46
344.6	0.38
344.963	0.38
345.325	0.44
345.688	0.45
346.05	0.44
346.412	0.49
346.775	0.45
347.137	0.33
347.499	0.3
347.861	0.36
348.223	0.36
348.585	0.38
348.947	0.4
349.309	0.31
349.671	0.35
350.033	0.32
350.395	0.35
350.757	0.43
351.118	0.42
351.48	0.53
351.842	0.48
352.203	0.47
352.565	0.51
352.927	0.51
353.288	0.48
353.65	0.52
354.011	0.51
354.372	0.46
354.734	0.48
355.095	0.54
355.456	0.55
355.817	0.57
356.179	0.58
356.54	0.6
356.901	0.52
357.262	0.51
357.623	0.5
357.984	0.5
358.345	0.57
358.705	0.52
359.066	0.49
359.427	0.48
359.788	0.42
360.148	0.43
360.509	0.32
360.87	0.29
361.23	0.21
361.591	0.17
361.951	0.21
362.312	0.29
362.672	0.28
363.032	0.36
363.393	0.39
363.753	0.39
364.113	0.32
364.473	0.33
364.833	0.33
365.193	0.36
365.553	0.39
365.913	0.4
366.273	0.42
366.633	0.43
366.993	0.37
367.353	0.33
367.713	0.31
368.072	0.35
368.432	0.33
368.792	0.33
369.151	0.31
369.511	0.27
369.87	0.33
370.23	0.43
370.589	0.45
370.949	0.45
371.308	0.43
371.667	0.39
372.027	0.3
372.386	0.25
372.745	0.24
373.104	0.27
373.463	0.25
373.822	0.22
374.181	0.23
374.54	0.23
374.899	0.32
375.258	0.36
375.617	0.32
375.975	0.46
376.334	0.53
376.693	0.64
377.052	0.7
377.41	0.72
377.769	0.75
378.127	0.74
378.486	0.83
378.844	0.83
379.202	0.83
379.561	0.88
379.919	0.87
380.277	0.87
380.636	0.9
380.994	0.97
381.352	1.08
381.71	1.13
382.068	1.23
382.426	1.26
382.784	1.32
383.142	1.32
383.5	1.28
383.857	1.36
384.215	1.39
384.573	1.4
384.931	1.36
385.288	1.4
385.646	1.39
386.003	1.41
386.361	1.51
386.718	1.55
387.076	1.71
387.433	1.8
387.791	1.85
388.148	2.05
388.505	2.11
388.862	2.19
389.22	2.36
389.577	2.56
389.934	2.68
390.291	2.73
390.648	2.82
391.005	3.04
391.362	3.2
391.718	3.4
392.075	3.54
392.432	3.76
392.789	3.91
393.145	4.13
393.502	4.44
393.859	4.67
394.215	4.92
394.572	5.12
394.928	5.36
395.285	5.62
395.641	5.9
395.997	6.14
396.354	6.33
396.71	6.68
397.066	6.88
397.422	7.15
397.778	7.54
398.134	7.77
398.491	8.06
398.846	8.43
399.202	8.81
399.558	9.17
399.914	9.46
400.27	9.88
400.626	10.24
400.981	10.72
401.337	11.17
401.693	11.63
402.048	12.1
402.404	12.47
402.759	12.87
403.115	13.31
403.47	13.76
403.826	14.28
404.181	14.72
404.536	15.15
404.892	15.57
405.247	16.1
405.602	16.64
405.957	17.17
406.312	17.63
406.667	18.08
407.022	18.57
407.377	19.05
407.732	19.45
408.087	19.89
408.442	20.46
408.796	20.88
409.151	21.35
409.506	21.87
409.86	22.32
410.215	22.74
410.57	23.09
410.924	23.5
411.279	23.99
411.633	24.45
411.987	24.91
412.342	25.42
412.696	25.77
413.05	26.25
413.404	26.63
413.758	27.11
414.113	27.51
414.467	27.78
414.821	27.95
415.175	28.44
415.529	28.75
415.882	29.16
416.236	29.4
416.59	29.8
416.944	30.15
417.298	30.43
417.651	30.8
418.005	31.06
418.358	31.34
418.712	31.51
419.065	31.78
419.419	32.1
419.772	32.38
420.126	32.64
420.479	32.93
420.832	33.06
421.185	33.25
421.539	33.45
421.892	33.56
422.245	33.84
422.598	33.97
422.951	34.15
423.304	34.3
423.657	34.62
424.01	34.79
424.363	35.06
424.715	35.22
425.068	35.49
425.421	35.62
425.773	35.82
426.126	36.03
426.479	36.15
426.831	36.31
427.184	36.45
427.536	36.62
427.889	36.72
428.241	36.86
428.593	36.96
428.945	37.01
429.298	37.1
429.65	37.32
430.002	37.48
430.354	37.7
430.706	37.91
431.058	37.94
431.41	38.08
431.762	38.33
432.114	38.53
432.466	38.6
432.817	38.62
433.169	38.75
433.521	38.81
433.872	38.91
434.224	39.03
434.576	39.18
434.927	39.15
435.279	39.24
435.63	39.32
435.981	39.33
436.333	39.44
436.684	39.5
437.035	39.54
437.387	39.51
437.738	39.57
438.089	39.56
438.44	39.47
438.791	39.41
439.142	39.33
439.493	39.26
439.844	39.34
440.195	39.35
440.545	39.15
440.896	39.21
441.247	39.15
441.598	39.18
441.948	39.08
442.299	39.15
442.649	39.05
443	39
443.35	38.97
443.701	39.02
444.051	38.91
444.401	38.85
444.752	38.86
445.102	38.87
445.452	38.9
445.802	38.92
446.152	38.84
446.502	38.81
446.852	38.81
447.202	38.77
447.552	38.83
447.902	38.91
448.252	39.02
448.602	39.41
448.952	39.44
449.301	39.5
449.651	39.58
450.001	39.71
450.35	39.72
450.7	39.75
451.049	39.7
451.399	39.84
451.748	40.04
452.097	40
452.447	40
452.796	40.14
453.145	40.21
453.494	40.29
453.843	40.33
454.193	40.44
454.542	40.51
454.891	40.84
455.239	40.87
455.588	41.01
455.937	41.23
456.286	41.27
456.635	41.38
456.984	41.39
457.332	41.09
457.681	41.18
458.03	41.31
458.378	41.22
458.727	41.31
459.075	41.51
459.423	41.77
459.772	41.88
460.12	41.87
460.468	41.78
460.817	41.85
461.165	41.82
461.513	41.85
461.861	42.02
462.209	42.03
462.557	42.06
462.905	41.85
463.253	41.79
463.601	41.8
463.949	41.85
464.297	41.81
464.644	41.82
464.992	41.88
465.34	41.79
465.687	41.88
466.035	41.78
466.383	41.73
466.73	41.67
467.078	41.68
467.425	41.61
467.772	41.35
468.12	41.1
468.467	40.96
468.814	40.98
469.161	40.75
469.508	40.53
469.856	40.47
470.203	40.29
470.55	40.02
470.897	39.95
471.243	39.83
471.59	39.87
471.937	39.72
472.284	39.51
472.631	39.36
472.977	39.36
473.324	39.24
473.671	39.12
474.017	38.98
474.364	38.74
474.71	38.53
475.057	38.39
475.403	38.24
475.749	38.16
476.096	37.97
476.442	37.97
476.788	37.89
477.134	37.83
477.48	37.74
477.826	37.75
478.172	37.79
478.518	37.73
478.864	37.68
479.21	37.73
479.556	37.66
479.902	37.62
480.248	37.59
480.593	37.58
480.939	37.58
481.285	37.58
481.63	37.44
481.976	37.31
482.321	37.23
482.667	37.19
483.012	37.19
483.357	37.26
483.703	37.23
484.048	37.31
484.393	37.25
484.738	37.42
485.084	37.4
485.429	37.36
485.774	37.39
486.119	37.37
486.464	37.41
486.808	37.42
487.153	37.35
487.498	37.36
487.843	37.29
488.188	37.28
488.532	37.25
488.877	37.28
489.222	37.35
489.566	37.27
489.911	37.32
490.255	37.41
490.6	37.54
490.944	37.49
491.288	37.48
491.633	37.51
491.977	37.47
492.321	37.52
492.665	37.46
493.009	37.45
493.353	37.31
493.697	37.31
494.041	37.36
494.385	37.35
494.729	37.36
495.073	37.31
495.417	37.23
495.76	37.35
496.104	37.26
496.448	37.26
496.791	37.31
497.135	37.24
497.479	37.16
497.822	37.08
498.165	37.06
498.509	36.98
498.852	36.85
499.196	36.79
499.539	36.79
499.882	36.85
500.225	36.74
500.568	36.68
500.911	36.64
501.254	36.59
501.597	36.59
501.94	36.54
502.283	36.43
502.626	36.38
502.969	36.34
503.312	36.21
503.654	36.21
503.997	36.18
504.34	36.03
504.682	36.03
505.025	35.91
505.367	35.76
505.71	35.76
506.052	35.75
506.395	35.69
506.737	35.57
507.079	35.48
507.421	35.46
507.764	35.39
508.106	35.26
508.448	35.07
508.79	35
509.132	34.86
509.474	34.78
509.816	34.67
510.158	34.45
510.499	34.37
510.841	34.34
511.183	34.24
511.525	34.08
511.866	34.01
512.208	33.86
512.549	33.67
512.891	33.59
513.232	33.45
513.574	33.39
513.915	33.29
514.256	33.15
514.598	32.93
514.939	32.84
515.28	32.83
515.621	32.76
515.962	32.68
516.303	32.55
516.644	32.47
516.985	32.45
517.326	32.32
517.667	32.33
518.008	32.21
518.349	32.12
518.69	32.03
519.03	31.97
519.371	31.85
519.712	31.75
520.052	31.66
520.393	31.58
520.733	31.46
521.074	31.36
521.414	31.24
521.754	31.16
522.095	31.02
522.435	30.98
522.775	30.87
523.115	30.86
523.455	30.68
523.795	30.52
524.135	30.47
524.475	30.28
524.815	30.14
525.155	30.04
525.495	29.93
525.835	29.97
526.175	29.81
526.514	29.71
526.854	29.51
527.194	29.49
527.533	29.33
527.873	29.15
528.212	29.01
528.552	28.93
528.891	28.85
529.23	28.82
529.57	28.85
529.909	28.87
530.248	28.71
530.587	28.69
530.927	28.58
531.266	28.48
531.605	28.4
531.944	28.26
532.283	28.08
532.621	27.89
532.96	27.89
533.299	27.82
533.638	27.77
533.977	27.65
534.315	27.4
534.654	27.27
534.992	27.13
535.331	27.15
535.67	27.01
536.008	26.87
536.346	26.92
536.685	26.85
537.023	26.71
537.361	26.5
537.7	26.43
538.038	26.29
538.376	26.21
538.714	26.21
539.052	26.06
539.39	26.03
539.728	25.97
540.066	25.87
540.404	25.92
540.741	25.85
541.079	25.93
541.417	25.92
541.755	25.86
542.092	25.76
542.43	25.73
542.767	25.79
543.105	25.77
543.442	25.73
543.78	25.56
544.117	25.59
544.454	25.61
544.792	25.43
545.129	25.39
545.466	25.4
545.803	25.48
546.14	25.37
546.477	25.46
546.814	25.41
547.151	25.42
547.488	25.33
547.825	25.15
548.162	25.14
548.499	25.04
548.835	24.9
549.172	24.96
549.509	24.87
549.845	24.75
550.182	24.75
550.518	24.66
550.855	24.57
551.191	24.58
551.528	24.63
551.864	24.76
552.2	24.95
552.537	24.9
552.873	24.76
553.209	24.78
553.545	24.76
553.881	24.81
554.217	24.76
554.553	24.75
554.889	24.76
555.225	24.78
555.561	24.71
555.896	24.8
556.232	24.98
556.568	25.12
556.903	25.26
557.239	25.26
557.575	25.37
557.91	25.39
558.245	25.46
558.581	25.39
558.916	25.49
559.252	25.59
559.587	25.52
559.922	25.49
560.257	25.38
560.592	25.35
560.928	25.39
561.263	25.59
561.598	25.69
561.933	25.66
562.267	25.7
562.602	25.77
562.937	25.82
563.272	25.95
563.607	25.84
563.941	26
564.276	26.14
564.611	26.05
564.945	26.05
565.28	25.98
565.614	26.13
565.949	26.07
566.283	26.03
566.617	26.06
566.951	26.15
567.286	26.26
567.62	26.31
567.954	26.33
568.288	26.39
568.622	26.45
568.956	26.41
569.29	26.38
569.624	26.37
569.958	26.38
570.292	26.52
570.626	26.57
570.959	26.64
571.293	26.74
571.627	26.71
571.96	26.85
572.294	26.82
572.627	26.77
572.961	26.81
573.294	26.67
573.627	26.79
573.961	26.81
574.294	26.91
574.627	27.04
574.961	27.09
575.294	27.12
575.627	27.09
575.96	27.06
576.293	27.16
576.626	27.19
576.959	27.22
577.292	27.33
577.624	27.43
577.957	27.49
578.29	27.62
578.623	27.55
578.955	27.49
579.288	27.54
579.62	27.55
579.953	27.6
580.285	27.62
580.618	27.73
580.95	27.85
581.282	28.01
581.615	28.21
581.947	28.15
582.279	28.26
582.611	28.29
582.943	28.32
583.275	28.34
583.607	28.49
583.939	28.62
584.271	28.74
584.603	28.78
584.935	28.84
585.267	28.82
585.598	28.89
585.93	28.9
586.262	28.9
586.593	28.9
586.925	28.95
587.256	29.17
587.588	29.2
587.919	29.26
588.25	29.38
588.582	29.38
588.913	29.35
589.244	29.36
589.575	29.41
589.907	29.44
590.238	29.61
590.569	29.69
590.9	29.78
591.231	29.79
591.562	29.85
591.892	29.9
592.223	30.1
592.554	30.34
592.885	30.5
593.215	30.6
593.546	30.74
593.877	30.71
594.207	30.77
594.538	30.97
594.868	31
595.198	31.25
595.529	31.33
595.859	31.55
596.189	31.68
596.52	31.72
596.85	31.9
597.18	32.07
597.51	32.2
597.84	32.24
598.17	32.44
598.5	32.47
598.83	32.61
599.16	32.8
599.489	33.03
599.819	33.27
600.149	33.4
600.479	33.51
600.808	33.59
601.138	33.78
601.467	33.97
601.797	34.22
602.126	34.52
602.456	34.89
602.785	35.03
603.114	35.3
603.443	35.51
603.773	35.72
604.102	35.82
604.431	35.95
604.76	36.09
605.089	36.36
605.418	36.6
605.747	36.83
606.076	37.04
606.405	37.16
606.733	37.48
607.062	37.54
607.391	37.76
607.72	37.97
608.048	38.19
608.377	38.46
608.705	38.65
609.034	38.93
609.362	39.08
609.69	39.36
610.019	39.61
610.347	39.84
610.675	40.02
611.004	40.27
611.332	40.44
611.66	40.5
611.988	40.77
612.316	41.02
612.644	41.17
612.972	41.36
613.3	41.42
613.627	41.6
613.955	41.69
614.283	42.06
614.611	42.49
614.938	42.74
615.266	43.24
615.593	43.26
615.921	43.33
616.248	43.73
616.576	44.12
616.903	44.32
617.23	44.44
617.558	44.87
617.885	45.17
618.212	45.41
618.539	45.87
618.866	46.27
619.193	46.5
619.52	46.8
619.847	47.13
620.174	47.14
620.501	47.39
620.828	47.55
621.155	47.73
621.481	47.95
621.808	48.16
622.135	48.66
622.461	48.42
622.788	48.12
623.114	48.23
623.441	48.06
623.767	48.41
624.093	48.97
624.42	48.88
624.746	49.21
625.072	49.44
625.398	49.71
625.725	49.93
626.051	50.11
626.377	50.41
626.703	50.23
627.029	50.23
627.354	50.34
627.68	50.53
628.006	50.73
628.332	50.85
628.658	51.09
628.983	51.42
629.309	51.79
629.634	51.76
629.96	52.08
630.285	52.02
630.611	52.28
630.936	52.46
631.262	52.86
631.587	53.39
631.912	53.34
632.237	52.98
632.562	53.27
632.887	53.37
633.213	53.95
633.538	54.71
633.863	54.73
634.187	55.04
634.512	54.77
634.837	54.89
635.162	55.1
635.487	55.15
635.811	55.45
636.136	55.78
636.461	56.04
636.785	55.67
637.11	56.08
637.434	55.98
637.758	56.88
638.083	56.86
638.407	57.14
638.731	57.55
639.056	57.98
639.38	57.83
639.704	57.5
640.028	58.39
640.352	58.88
640.676	58.98
641	59.01
641.324	58.91
641.648	57.98
641.972	57.46
642.295	57.49
642.619	58.03
642.943	58.33
643.266	57.84
643.59	58.01
643.913	58.07
644.237	57.9
644.56	57.89
644.884	58.35
645.207	58.27
645.53	58.42
645.854	58.46
646.177	58.66
646.5	58.46
646.823	58.59
647.146	58.95
647.469	58.97
647.792	59.72
648.115	59.14
648.438	59.91
648.761	62.5
649.084	62.85
649.406	62.35
649.729	61.95
650.052	61.73
650.374	61.63
650.697	61.65
651.019	61.63
651.342	61.85
651.664	61.96
651.987	61.92
652.309	61.95
652.631	61.98
652.953	62.09
653.276	62.03
653.598	62.14
653.92	62.12
654.242	62.15
654.564	62.09
654.886	62.1
655.208	61.98
655.53	61.87
655.851	61.69
656.173	61.76
656.495	61.57
656.816	60.49
657.138	59.82
657.46	59.69
657.781	60.07
658.103	60.63
