Data from T1_Reflection__48__13-58-25-003.txt Node

Date: Thu Jun 03 13:58:25 CEST 2021
User: mabdelazizm
Spectrometer: FLMS18565
Trigger mode: 0
Integration Time (sec): 2.000000E0
Scans to average: 1
Electric dark correction enabled: true
Nonlinearity correction enabled: false
Boxcar width: 12
XAxis mode: Wavelengths
Number of Pixels in Spectrum: 2048
>>>>>Begin Spectral Data<<<<<
179.071	-90.48
179.452	-14.86
179.833	-17.2
180.214	16.76
180.595	-7.15
180.977	27.63
181.358	29.8
181.739	17.93
182.12	0.26
182.501	-45.25
182.882	-62.8
183.262	-52.26
183.643	-27.22
184.024	-2.34
184.405	3.63
184.786	-3.76
185.166	2.37
185.547	11.74
185.927	11.72
186.308	19.48
186.689	25.29
187.069	23.01
187.449	22.05
187.83	16.79
188.21	17.81
188.59	15.59
188.971	5.67
189.351	6.88
189.731	-0.89
190.111	1.81
190.491	-2.49
190.871	-0.5
191.251	3.8
191.631	5.48
192.011	8.08
192.391	9.43
192.771	12.21
193.151	11.39
193.531	9.46
193.91	8.01
194.29	9.96
194.67	7.63
195.049	6.9
195.429	7.73
195.808	6.78
196.188	5.39
196.567	4.36
196.946	4.27
197.326	5.44
197.705	2.89
198.084	6.06
198.464	4.8
198.843	6.07
199.222	6.21
199.601	6.22
199.98	4.42
200.359	4.01
200.738	3.47
201.117	4.54
201.496	3.8
201.875	3.04
202.254	1.93
202.632	2.4
203.011	2.11
203.39	3.97
203.768	5.8
204.147	6.95
204.525	7.65
204.904	6.76
205.282	7.37
205.661	7.99
206.039	9.86
206.418	11.61
206.796	13.03
207.174	15.23
207.552	14.3
207.931	14.73
208.309	14
208.687	14.82
209.065	15.23
209.443	15.98
209.821	16.4
210.199	15.43
210.577	14.71
210.954	16.3
211.332	15.88
211.71	14.11
212.088	13.85
212.465	13.9
212.843	12.51
213.221	11.12
213.598	11.92
213.976	11.24
214.353	11.69
214.731	12.16
215.108	11.8
215.485	10.43
215.863	8.72
216.24	8.22
216.617	8.43
216.994	8.22
217.371	8.1
217.749	6.3
218.126	6.43
218.503	6.43
218.88	6.8
219.256	7
219.633	6.76
220.01	6.3
220.387	6.23
220.764	6.76
221.14	6.6
221.517	6.75
221.894	6.83
222.27	7.54
222.647	7.15
223.023	6.48
223.4	6.34
223.776	6.13
224.153	6.01
224.529	5.95
224.905	6.17
225.282	6.4
225.658	6.39
226.034	6.05
226.41	6.41
226.786	6.89
227.162	7.37
227.538	7.1
227.914	7.1
228.29	7.21
228.666	6.79
229.042	7.04
229.418	7.1
229.793	6.89
230.169	6.79
230.545	6.95
230.92	6.97
231.296	6.68
231.672	6.4
232.047	6.44
232.422	6.56
232.798	6.49
233.173	6.46
233.549	6.21
233.924	6.12
234.299	6.12
234.674	6.02
235.05	5.8
235.425	5.62
235.8	5.46
236.175	5.31
236.55	5.24
236.925	5.16
237.3	5.13
237.675	5.06
238.049	5.15
238.424	5.07
238.799	5.09
239.174	5.12
239.548	5.05
239.923	5.04
240.297	4.98
240.672	5.14
241.046	5.2
241.421	5.27
241.795	5.22
242.17	5.32
242.544	5.34
242.918	5.45
243.293	5.47
243.667	5.44
244.041	5.52
244.415	5.58
244.789	5.58
245.163	5.53
245.537	5.52
245.911	5.49
246.285	5.5
246.659	5.46
247.033	5.47
247.406	5.41
247.78	5.38
248.154	5.39
248.528	5.37
248.901	5.42
249.275	5.39
249.648	5.36
250.022	5.36
250.395	5.32
250.769	5.27
251.142	5.28
251.515	5.21
251.888	5.23
252.262	5.14
252.635	5.08
253.008	5.03
253.381	4.99
253.754	5
254.127	5.03
254.5	5
254.873	5.02
255.246	5.04
255.619	5.04
255.992	5.05
256.364	4.99
256.737	4.98
257.11	4.98
257.483	4.96
257.855	4.94
258.228	4.92
258.6	4.94
258.973	4.93
259.345	4.86
259.718	4.85
260.09	4.81
260.462	4.85
260.834	4.81
261.207	4.75
261.579	4.77
261.951	4.78
262.323	4.74
262.695	4.73
263.067	4.72
263.439	4.75
263.811	4.76
264.183	4.69
264.555	4.64
264.927	4.62
265.298	4.63
265.67	4.64
266.042	4.66
266.413	4.66
266.785	4.64
267.156	4.6
267.528	4.58
267.899	4.54
268.271	4.53
268.642	4.51
269.013	4.48
269.385	4.46
269.756	4.36
270.127	4.35
270.498	4.33
270.87	4.27
271.241	4.25
271.612	4.31
271.983	4.26
272.354	4.19
272.724	4.15
273.095	4.09
273.466	4.07
273.837	4.05
274.208	4.03
274.578	4
274.949	3.97
275.32	3.94
275.69	3.9
276.061	3.83
276.431	3.82
276.802	3.79
277.172	3.77
277.542	3.78
277.913	3.8
278.283	3.76
278.653	3.72
279.023	3.78
279.394	3.76
279.764	3.73
280.134	3.72
280.504	3.7
280.874	3.68
281.244	3.69
281.614	3.66
281.983	3.67
282.353	3.72
282.723	3.73
283.093	3.72
283.462	3.71
283.832	3.67
284.202	3.69
284.571	3.66
284.941	3.63
285.31	3.61
285.68	3.6
286.049	3.61
286.418	3.54
286.788	3.55
287.157	3.51
287.526	3.58
287.895	3.53
288.264	3.54
288.633	3.49
289.002	3.46
289.371	3.49
289.74	3.5
290.109	3.46
290.478	3.45
290.847	3.41
291.216	3.35
291.585	3.28
291.953	3.21
292.322	3.24
292.691	3.22
293.059	3.19
293.428	3.16
293.796	3.15
294.165	3.14
294.533	3.17
294.901	3.18
295.27	3.12
295.638	3.17
296.006	3.07
296.374	3.07
296.743	3.01
297.111	3.03
297.479	2.94
297.847	2.96
298.215	2.94
298.583	2.92
298.95	2.94
299.318	2.95
299.686	2.91
300.054	3
300.422	3.02
300.789	3.06
301.157	3.09
301.525	3.06
301.892	3.06
302.26	3.12
302.627	3.13
302.994	3.09
303.362	3.12
303.729	3.1
304.097	3.08
304.464	3.04
304.831	3.04
305.198	3.04
305.565	3.04
305.932	3.07
306.299	3.05
306.666	3.03
307.033	3.06
307.4	3.14
307.767	3.07
308.134	3.04
308.501	3
308.867	3.02
309.234	3
309.601	2.99
309.967	2.96
310.334	3
310.701	2.98
311.067	2.96
311.433	2.95
311.8	2.93
312.166	2.96
312.533	2.96
312.899	2.94
313.265	2.93
313.631	2.98
313.997	2.94
314.363	2.92
314.729	2.9
315.096	2.84
315.461	2.86
315.827	2.88
316.193	2.84
316.559	2.79
316.925	2.77
317.291	2.73
317.656	2.7
318.022	2.75
318.388	2.71
318.753	2.65
319.119	2.61
319.484	2.6
319.85	2.61
320.215	2.63
320.581	2.58
320.946	2.61
321.311	2.62
321.676	2.65
322.042	2.65
322.407	2.68
322.772	2.64
323.137	2.68
323.502	2.69
323.867	2.66
324.232	2.69
324.597	2.72
324.962	2.64
325.327	2.61
325.691	2.65
326.056	2.68
326.421	2.68
326.785	2.69
327.15	2.65
327.514	2.61
327.879	2.68
328.243	2.73
328.608	2.76
328.972	2.78
329.337	2.8
329.701	2.85
330.065	2.83
330.429	2.8
330.794	2.67
331.158	2.66
331.522	2.6
331.886	2.61
332.25	2.56
332.614	2.59
332.978	2.57
333.342	2.54
333.705	2.53
334.069	2.6
334.433	2.68
334.797	2.59
335.16	2.56
335.524	2.61
335.887	2.63
336.251	2.63
336.614	2.69
336.978	2.64
337.341	2.61
337.705	2.57
338.068	2.61
338.431	2.58
338.794	2.53
339.158	2.51
339.521	2.5
339.884	2.52
340.247	2.58
340.61	2.59
340.973	2.6
341.336	2.64
341.699	2.63
342.062	2.62
342.424	2.54
342.787	2.53
343.15	2.5
343.512	2.43
343.875	2.48
344.238	2.62
344.6	2.66
344.963	2.63
345.325	2.68
345.688	2.6
346.05	2.6
346.412	2.63
346.775	2.58
347.137	2.55
347.499	2.55
347.861	2.55
348.223	2.55
348.585	2.54
348.947	2.55
349.309	2.47
349.671	2.5
350.033	2.47
350.395	2.4
350.757	2.36
351.118	2.44
351.48	2.55
351.842	2.58
352.203	2.57
352.565	2.6
352.927	2.61
353.288	2.51
353.65	2.43
354.011	2.37
354.372	2.35
354.734	2.35
355.095	2.36
355.456	2.36
355.817	2.37
356.179	2.31
356.54	2.32
356.901	2.29
357.262	2.23
357.623	2.28
357.984	2.37
358.345	2.42
358.705	2.42
359.066	2.43
359.427	2.45
359.788	2.43
360.148	2.36
360.509	2.32
360.87	2.23
361.23	2.17
361.591	2.18
361.951	2.11
362.312	2.12
362.672	2.11
363.032	2.22
363.393	2.23
363.753	2.28
364.113	2.29
364.473	2.28
364.833	2.28
365.193	2.29
365.553	2.3
365.913	2.31
366.273	2.33
366.633	2.31
366.993	2.25
367.353	2.22
367.713	2.19
368.072	2.18
368.432	2.22
368.792	2.31
369.151	2.29
369.511	2.32
369.87	2.43
370.23	2.56
370.589	2.58
370.949	2.68
371.308	2.7
371.667	2.66
372.027	2.59
372.386	2.56
372.745	2.52
373.104	2.55
373.463	2.52
373.822	2.54
374.181	2.52
374.54	2.53
374.899	2.57
375.258	2.58
375.617	2.51
375.975	2.55
376.334	2.55
376.693	2.56
377.052	2.57
377.41	2.58
377.769	2.59
378.127	2.58
378.486	2.57
378.844	2.52
379.202	2.46
379.561	2.42
379.919	2.4
380.277	2.39
380.636	2.45
380.994	2.47
381.352	2.48
381.71	2.55
382.068	2.54
382.426	2.56
382.784	2.51
383.142	2.61
383.5	2.61
383.857	2.62
384.215	2.63
384.573	2.66
384.931	2.66
385.288	2.68
385.646	2.66
386.003	2.65
386.361	2.63
386.718	2.61
387.076	2.68
387.433	2.78
387.791	2.81
388.148	2.89
388.505	2.92
388.862	2.89
389.22	2.95
389.577	3.01
389.934	3.11
390.291	3.1
390.648	3.1
391.005	3.2
391.362	3.22
391.718	3.36
392.075	3.34
392.432	3.37
392.789	3.49
393.145	3.52
393.502	3.65
393.859	3.77
394.215	3.8
394.572	3.9
394.928	4.03
395.285	4.12
395.641	4.16
395.997	4.28
396.354	4.33
396.71	4.45
397.066	4.53
397.422	4.6
397.778	4.77
398.134	4.88
398.491	5.06
398.846	5.17
399.202	5.34
399.558	5.52
399.914	5.66
400.27	5.95
400.626	6.14
400.981	6.38
401.337	6.59
401.693	6.81
402.048	7.1
402.404	7.34
402.759	7.49
403.115	7.81
403.47	8.16
403.826	8.49
404.181	8.78
404.536	9.15
404.892	9.45
405.247	9.77
405.602	10.11
405.957	10.47
406.312	10.82
406.667	11.16
407.022	11.58
407.377	11.96
407.732	12.26
408.087	12.6
408.442	12.96
408.796	13.35
409.151	13.66
409.506	14.1
409.86	14.5
410.215	14.93
410.57	15.26
410.924	15.62
411.279	15.98
411.633	16.38
411.987	16.77
412.342	17.2
412.696	17.51
413.05	17.98
413.404	18.35
413.758	18.83
414.113	19.27
414.467	19.69
414.821	20.07
415.175	20.58
415.529	21.04
415.882	21.44
416.236	21.8
416.59	22.4
416.944	22.88
417.298	23.38
417.651	23.78
418.005	24.24
418.358	24.65
418.712	25.09
419.065	25.51
419.419	25.97
419.772	26.48
420.126	26.92
420.479	27.38
420.832	27.89
421.185	28.23
421.539	28.64
421.892	29.05
422.245	29.46
422.598	29.76
422.951	30.14
423.304	30.5
423.657	30.88
424.01	31.32
424.363	31.72
424.715	32.09
425.068	32.5
425.421	32.79
425.773	33.2
426.126	33.65
426.479	33.97
426.831	34.32
427.184	34.55
427.536	34.65
427.889	34.95
428.241	35.26
428.593	35.52
428.945	35.78
429.298	36.08
429.65	36.27
430.002	36.59
430.354	36.87
430.706	37.17
431.058	37.41
431.41	37.72
431.762	38.03
432.114	38.24
432.466	38.45
432.817	38.58
433.169	38.85
433.521	39.12
433.872	39.35
434.224	39.47
434.576	39.72
434.927	39.78
435.279	40.02
435.63	40.14
435.981	40.39
436.333	40.8
436.684	40.85
437.035	40.96
437.387	41.03
437.738	41.21
438.089	41.36
438.44	41.41
438.791	41.58
439.142	41.65
439.493	41.77
439.844	41.89
440.195	41.94
440.545	42
440.896	42.2
441.247	42.29
441.598	42.39
441.948	42.4
442.299	42.34
442.649	42.37
443	42.48
443.35	42.48
443.701	42.52
444.051	42.51
444.401	42.64
444.752	42.73
445.102	42.66
445.452	42.78
445.802	42.92
446.152	43.02
446.502	43.1
446.852	43.11
447.202	43.05
447.552	42.98
447.902	43.07
448.252	43.07
448.602	43.47
448.952	43.48
449.301	43.4
449.651	43.38
450.001	43.45
450.35	43.42
450.7	43.42
451.049	43.46
451.399	43.39
451.748	43.45
452.097	43.38
452.447	43.43
452.796	43.42
453.145	43.39
453.494	43.24
453.843	43.19
454.193	43.23
454.542	43.12
454.891	43.14
455.239	43.03
455.588	43.03
455.937	43.22
456.286	43.24
456.635	43.23
456.984	43.06
457.332	42.57
457.681	42.53
458.03	42.6
458.378	42.51
458.727	42.45
459.075	42.36
459.423	42.49
459.772	42.44
460.12	42.39
460.468	42.17
460.817	42.16
461.165	41.96
461.513	41.89
461.861	41.89
462.209	41.72
462.557	41.68
462.905	41.43
463.253	41.29
463.601	41.12
463.949	40.95
464.297	40.83
464.644	40.65
464.992	40.36
465.34	40.18
465.687	40.15
466.035	40.01
466.383	39.87
466.73	39.54
467.078	39.55
467.425	39.37
467.772	39.33
468.12	38.98
468.467	38.83
468.814	38.81
469.161	38.7
469.508	38.53
469.856	38.42
470.203	38.27
470.55	37.92
470.897	37.9
471.243	37.8
471.59	37.74
471.937	37.62
472.284	37.58
472.631	37.45
472.977	37.33
473.324	37.24
473.671	37.26
474.017	37.08
474.364	36.88
474.71	36.77
475.057	36.65
475.403	36.59
475.749	36.39
476.096	36.2
476.442	35.94
476.788	35.87
477.134	35.88
477.48	35.63
477.826	35.56
478.172	35.41
478.518	35.26
478.864	35.14
479.21	35.17
479.556	35.07
479.902	35.03
480.248	34.89
480.593	34.74
480.939	34.52
481.285	34.44
481.63	34.23
481.976	34.04
482.321	33.83
482.667	33.78
483.012	33.66
483.357	33.53
483.703	33.4
484.048	33.25
484.393	33.11
484.738	33.11
485.084	33.08
485.429	32.9
485.774	32.72
486.119	32.67
486.464	32.54
486.808	32.38
487.153	32.28
487.498	32.05
487.843	31.8
488.188	31.57
488.532	31.27
488.877	31.1
489.222	30.99
489.566	30.78
489.911	30.52
490.255	30.39
490.6	30.2
490.944	30
491.288	29.78
491.633	29.69
491.977	29.55
492.321	29.41
492.665	29.22
493.009	28.98
493.353	28.69
493.697	28.54
494.041	28.4
494.385	28.24
494.729	28.03
495.073	27.81
495.417	27.72
495.76	27.58
496.104	27.5
496.448	27.39
496.791	27.32
497.135	27.15
497.479	26.89
497.822	26.7
498.165	26.59
498.509	26.53
498.852	26.36
499.196	26.26
499.539	26.16
499.882	26.07
500.225	25.91
500.568	25.73
500.911	25.51
501.254	25.49
501.597	25.49
501.94	25.44
502.283	25.32
502.626	25.18
502.969	25.07
503.312	24.94
503.654	24.86
503.997	24.72
504.34	24.6
504.682	24.46
505.025	24.32
505.367	24.09
505.71	24.02
506.052	23.98
506.395	23.88
506.737	23.73
507.079	23.58
507.421	23.43
507.764	23.31
508.106	23.14
508.448	22.97
508.79	22.86
509.132	22.82
509.474	22.79
509.816	22.58
510.158	22.35
510.499	22.22
510.841	22.1
511.183	21.99
511.525	21.8
511.866	21.73
512.208	21.64
512.549	21.44
512.891	21.22
513.232	21.16
513.574	21
513.915	20.96
514.256	20.83
514.598	20.77
514.939	20.72
515.28	20.65
515.621	20.52
515.962	20.54
516.303	20.44
516.644	20.37
516.985	20.34
517.326	20.1
517.667	20
518.008	19.86
518.349	19.82
518.69	19.64
519.03	19.54
519.371	19.4
519.712	19.32
520.052	19.22
520.393	19.16
520.733	19.01
521.074	19.03
521.414	19.06
521.754	18.9
522.095	18.86
522.435	18.78
522.775	18.77
523.115	18.58
523.455	18.41
523.795	18.28
524.135	18.29
524.475	18
524.815	17.86
525.155	17.77
525.495	17.55
525.835	17.59
526.175	17.49
526.514	17.41
526.854	17.38
527.194	17.46
527.533	17.33
527.873	17.24
528.212	17.17
528.552	17.18
528.891	17.09
529.23	17.11
529.57	17.05
529.909	16.95
530.248	16.95
530.587	16.88
530.927	16.74
531.266	16.61
531.605	16.68
531.944	16.6
532.283	16.56
532.621	16.46
532.96	16.54
533.299	16.55
533.638	16.58
533.977	16.59
534.315	16.57
534.654	16.47
534.992	16.48
535.331	16.34
535.67	16.19
536.008	16.16
536.346	16.18
536.685	16.08
537.023	15.93
537.361	15.82
537.7	15.67
538.038	15.53
538.376	15.45
538.714	15.46
539.052	15.33
539.39	15.33
539.728	15.23
540.066	15.14
540.404	15.1
540.741	15.02
541.079	14.98
541.417	14.91
541.755	14.81
542.092	14.64
542.43	14.65
542.767	14.56
543.105	14.49
543.442	14.38
543.78	14.26
544.117	14.4
544.454	14.48
544.792	14.4
545.129	14.44
545.466	14.46
545.803	14.48
546.14	14.46
546.477	14.47
546.814	14.38
547.151	14.24
547.488	14.35
547.825	14.32
548.162	14.32
548.499	14.28
548.835	14.34
549.172	14.33
549.509	14.33
549.845	14.32
550.182	14.38
550.518	14.41
550.855	14.44
551.191	14.49
551.528	14.57
551.864	14.68
552.2	14.85
552.537	14.74
552.873	14.54
553.209	14.52
553.545	14.42
553.881	14.39
554.217	14.38
554.553	14.36
554.889	14.38
555.225	14.52
555.561	14.46
555.896	14.42
556.232	14.41
556.568	14.51
556.903	14.5
557.239	14.4
557.575	14.49
557.91	14.61
558.245	14.65
558.581	14.62
558.916	14.63
559.252	14.63
559.587	14.5
559.922	14.44
560.257	14.38
560.592	14.35
560.928	14.36
561.263	14.58
561.598	14.55
561.933	14.6
562.267	14.7
562.602	14.74
562.937	14.82
563.272	14.77
563.607	14.73
563.941	14.88
564.276	14.95
564.611	14.97
564.945	15.01
565.28	14.94
565.614	15.01
565.949	15.01
566.283	14.97
566.617	15.1
566.951	15.12
567.286	15.27
567.62	15.29
567.954	15.45
568.288	15.6
568.622	15.62
568.956	15.65
569.29	15.64
569.624	15.58
569.958	15.69
570.292	15.8
570.626	15.87
570.959	16.01
571.293	16.07
571.627	16.12
571.96	16.28
572.294	16.29
572.627	16.26
572.961	16.31
573.294	16.27
573.627	16.34
573.961	16.37
574.294	16.4
574.627	16.46
574.961	16.51
575.294	16.68
575.627	16.59
575.96	16.57
576.293	16.56
576.626	16.54
576.959	16.64
577.292	16.62
577.624	16.66
577.957	16.74
578.29	16.8
578.623	16.79
578.955	16.82
579.288	16.79
579.62	16.83
579.953	16.91
580.285	16.92
580.618	17.02
580.95	17.12
581.282	17.23
581.615	17.35
581.947	17.39
582.279	17.49
582.611	17.46
582.943	17.51
583.275	17.54
583.607	17.5
583.939	17.63
584.271	17.8
584.603	17.9
584.935	18.03
585.267	18.02
585.598	18.11
585.93	18.23
586.262	18.24
586.593	18.24
586.925	18.32
587.256	18.43
587.588	18.44
587.919	18.51
588.25	18.56
588.582	18.54
588.913	18.63
589.244	18.68
589.575	18.73
589.907	18.75
590.238	18.95
590.569	19.04
590.9	19.22
591.231	19.24
591.562	19.27
591.892	19.42
592.223	19.66
592.554	19.84
592.885	20.09
593.215	20.05
593.546	20.15
593.877	20.29
594.207	20.32
594.538	20.45
594.868	20.54
595.198	20.59
595.529	20.72
595.859	20.91
596.189	20.92
596.52	21.05
596.85	21.08
597.18	21.15
597.51	21.29
597.84	21.41
598.17	21.66
598.5	21.7
598.83	21.84
599.16	22.17
599.489	22.37
599.819	22.65
600.149	22.78
600.479	22.89
600.808	22.85
601.138	22.88
601.467	23.13
601.797	23.37
602.126	23.57
602.456	23.88
602.785	24.06
603.114	24.38
603.443	24.74
603.773	24.96
604.102	25.11
604.431	25.38
604.76	25.56
605.089	25.92
605.418	26.02
605.747	26.21
606.076	26.41
606.405	26.44
606.733	26.67
607.062	26.86
607.391	26.95
607.72	27.17
608.048	27.24
608.377	27.58
608.705	27.86
609.034	28.23
609.362	28.47
609.69	28.8
610.019	28.9
610.347	29.11
610.675	29.28
611.004	29.55
611.332	29.69
611.66	29.76
611.988	29.9
612.316	30.09
612.644	30.33
612.972	30.49
613.3	30.59
613.627	30.9
613.955	31.25
614.283	31.5
614.611	32.05
614.938	32.18
615.266	32.46
615.593	32.64
615.921	32.94
616.248	33.3
616.576	33.58
616.903	33.59
617.23	33.91
617.558	34.43
617.885	34.83
618.212	35.3
618.539	35.46
618.866	35.73
619.193	35.94
619.52	36.36
619.847	36.79
620.174	37.22
620.501	37.55
620.828	37.56
621.155	37.83
621.481	38.14
621.808	38.58
622.135	38.77
622.461	38.89
622.788	38.83
623.114	39.4
623.441	39.58
623.767	39.63
624.093	39.92
624.42	40.16
624.746	40.36
625.072	40.66
625.398	40.7
625.725	40.91
626.051	40.9
626.377	41.18
626.703	41.86
627.029	42.23
627.354	42.66
627.68	42.61
628.006	42.86
628.332	42.7
628.658	43.29
628.983	43.85
629.309	44.18
629.634	44.52
629.96	44.35
630.285	44.44
630.611	44.31
630.936	44.33
631.262	44.24
631.587	44.38
631.912	45.15
632.237	44.95
632.562	45.72
632.887	46.22
633.213	46.78
633.538	47.47
633.863	47.4
634.187	47.63
634.512	47.73
634.837	47.66
635.162	47.46
635.487	47.75
635.811	48.09
636.136	48.16
636.461	48.22
636.785	47.73
637.11	48.14
637.434	48.68
637.758	49.03
638.083	49.67
638.407	49.97
638.731	51.11
639.056	51.7
639.38	52.19
639.704	52.53
640.028	52.86
640.352	53.6
640.676	53.37
641	53.22
641.324	53.67
641.648	53.84
641.972	53.71
642.295	53.91
642.619	54.4
642.943	54.65
643.266	54.81
643.59	54.92
643.913	55.54
644.237	56.13
644.56	56.39
644.884	56.95
645.207	57.01
645.53	57
645.854	57.47
646.177	57.69
646.5	57.56
646.823	57.15
647.146	57.16
647.469	57.68
647.792	58.2
648.115	57.73
648.438	58.1
648.761	60.1
649.084	61.27
649.406	60.77
649.729	60.12
650.052	59.77
650.374	59.68
650.697	59.63
651.019	59.68
651.342	59.9
651.664	59.88
651.987	59.84
652.309	59.68
652.631	59.69
652.953	59.88
653.276	59.8
653.598	59.67
653.92	59.49
654.242	59.52
654.564	59.55
654.886	59.68
655.208	59.6
655.53	59.3
655.851	59.02
656.173	59.11
656.495	59.25
656.816	58.46
657.138	57.52
657.46	57.19
657.781	57.42
658.103	58.86
658.424	59.46
658.746	60.27
659.067	60.21
659.388	60.2
659.709	60.17
