Data from T2_Reflection__17__00-28-02-973.txt Node

Date: Fri Jun 04 00:28:02 CEST 2021
User: mabdelazizm
Spectrometer: FLMS18565
Trigger mode: 0
Integration Time (sec): 2.000000E0
Scans to average: 1
Electric dark correction enabled: true
Nonlinearity correction enabled: false
Boxcar width: 12
XAxis mode: Wavelengths
Number of Pixels in Spectrum: 2048
>>>>>Begin Spectral Data<<<<<
179.071	-326.46
179.452	-192.41
179.833	-46.31
180.214	-1450
180.595	-52.84
180.977	-98.52
181.358	-1910.2
181.739	642.42
182.12	132.7
182.501	56.49
182.882	10.84
183.262	34.32
183.643	41.73
184.024	15.31
184.405	8.23
184.786	1.87
185.166	-1.56
185.547	9.17
185.927	11.9
186.308	14.35
186.689	22.87
187.069	11.53
187.449	15.71
187.83	7.02
188.21	5.99
188.59	18.08
188.971	21.3
189.351	28.04
189.731	25.07
190.111	26.87
190.491	26.38
190.871	23.03
191.251	24.81
191.631	27.8
192.011	28.66
192.391	31.72
192.771	29.76
193.151	27.49
193.531	31.01
193.91	31.25
194.29	30.55
194.67	31.56
195.049	30.56
195.429	33.07
195.808	35.02
196.188	33.32
196.567	34.19
196.946	36.32
197.326	38.19
197.705	37.06
198.084	31.78
198.464	27.86
198.843	28.17
199.222	31.82
199.601	29.78
199.98	33.9
200.359	35.31
200.738	33.23
201.117	30.88
201.496	29.85
201.875	28.51
202.254	25.74
202.632	25.35
203.011	25.5
203.39	24.62
203.768	24.05
204.147	24.21
204.525	21.66
204.904	18.5
205.282	14.33
205.661	12.7
206.039	13.96
206.418	12.6
206.796	13.17
207.174	15.48
207.552	16.09
207.931	17.01
208.309	13.75
208.687	10.95
209.065	11.6
209.443	10.43
209.821	9.85
210.199	10.47
210.577	9.17
210.954	10.35
211.332	10.17
211.71	12.14
212.088	13.93
212.465	12.9
212.843	12.91
213.221	11.59
213.598	11.25
213.976	10.52
214.353	11.83
214.731	11.58
215.108	11.7
215.485	12.05
215.863	12.71
216.24	12.35
216.617	10.63
216.994	11.92
217.371	11.8
217.749	13.74
218.126	12.47
218.503	11.83
218.88	12.15
219.256	11.85
219.633	11.03
220.01	11.27
220.387	10.16
220.764	11.08
221.14	11.87
221.517	10.89
221.894	9.96
222.27	9.77
222.647	10.54
223.023	10.23
223.4	11.22
223.776	10.16
224.153	10.46
224.529	10.5
224.905	10
225.282	9.7
225.658	9.3
226.034	9.13
226.41	8.39
226.786	7.68
227.162	7.43
227.538	7.57
227.914	7.34
228.29	6.74
228.666	6.58
229.042	6.3
229.418	6.37
229.793	6.61
230.169	6.4
230.545	5.88
230.92	6.11
231.296	6.18
231.672	6.09
232.047	5.91
232.422	6.07
232.798	5.98
233.173	6.03
233.549	6.15
233.924	6.17
234.299	6.11
234.674	6.09
235.05	6.2
235.425	6.1
235.8	5.91
236.175	6.02
236.55	5.89
236.925	5.86
237.3	5.74
237.675	5.63
238.049	5.47
238.424	5.5
238.799	5.41
239.174	5.29
239.548	5.34
239.923	5.19
240.297	5.1
240.672	4.99
241.046	5.07
241.421	5.04
241.795	4.85
242.17	4.75
242.544	4.49
242.918	4.49
243.293	4.4
243.667	4.43
244.041	4.31
244.415	4.19
244.789	4.25
245.163	4.33
245.537	4.36
245.911	4.43
246.285	4.41
246.659	4.42
247.033	4.46
247.406	4.54
247.78	4.58
248.154	4.59
248.528	4.6
248.901	4.53
249.275	4.62
249.648	4.63
250.022	4.67
250.395	4.59
250.769	4.6
251.142	4.67
251.515	4.68
251.888	4.81
252.262	4.72
252.635	4.79
253.008	4.75
253.381	4.71
253.754	4.67
254.127	4.67
254.5	4.61
254.873	4.57
255.246	4.5
255.619	4.55
255.992	4.53
256.364	4.46
256.737	4.38
257.11	4.32
257.483	4.2
257.855	4.23
258.228	4.19
258.6	4.21
258.973	4.17
259.345	4.14
259.718	4.06
260.09	4.01
260.462	3.93
260.834	3.91
261.207	3.83
261.579	3.84
261.951	3.8
262.323	3.73
262.695	3.77
263.067	3.77
263.439	3.71
263.811	3.74
264.183	3.6
264.555	3.61
264.927	3.59
265.298	3.64
265.67	3.58
266.042	3.6
266.413	3.58
266.785	3.68
267.156	3.67
267.528	3.6
267.899	3.5
268.271	3.48
268.642	3.48
269.013	3.58
269.385	3.62
269.756	3.59
270.127	3.61
270.498	3.64
270.87	3.64
271.241	3.54
271.612	3.55
271.983	3.49
272.354	3.45
272.724	3.38
273.095	3.42
273.466	3.49
273.837	3.46
274.208	3.45
274.578	3.36
274.949	3.33
275.32	3.32
275.69	3.31
276.061	3.28
276.431	3.27
276.802	3.32
277.172	3.38
277.542	3.35
277.913	3.33
278.283	3.28
278.653	3.22
279.023	3.25
279.394	3.26
279.764	3.28
280.134	3.24
280.504	3.31
280.874	3.34
281.244	3.34
281.614	3.4
281.983	3.42
282.353	3.31
282.723	3.27
283.093	3.23
283.462	3.26
283.832	3.28
284.202	3.36
284.571	3.28
284.941	3.28
285.31	3.3
285.68	3.28
286.049	3.26
286.418	3.21
286.788	3.22
287.157	3.22
287.526	3.22
287.895	3.22
288.264	3.12
288.633	3.04
289.002	3.08
289.371	3.06
289.74	2.98
290.109	2.98
290.478	3.02
290.847	2.99
291.216	2.99
291.585	3.01
291.953	3.05
292.322	3.16
292.691	3.08
293.059	3.08
293.428	3.06
293.796	3.09
294.165	3.07
294.533	3.02
294.901	3.06
295.27	3.01
295.638	3.09
296.006	3.03
296.374	3.01
296.743	3.03
297.111	3.19
297.479	3.2
297.847	3.19
298.215	3.11
298.583	3.03
298.95	3.02
299.318	3.02
299.686	2.96
300.054	2.89
300.422	2.88
300.789	2.9
301.157	2.83
301.525	2.71
301.892	2.64
302.26	2.64
302.627	2.61
302.994	2.57
303.362	2.59
303.729	2.64
304.097	2.58
304.464	2.62
304.831	2.54
305.198	2.54
305.565	2.56
305.932	2.49
306.299	2.36
306.666	2.42
307.033	2.44
307.4	2.48
307.767	2.48
308.134	2.58
308.501	2.5
308.867	2.49
309.234	2.51
309.601	2.49
309.967	2.47
310.334	2.54
310.701	2.53
311.067	2.6
311.433	2.69
311.8	2.77
312.166	2.75
312.533	2.74
312.899	2.65
313.265	2.6
313.631	2.56
313.997	2.44
314.363	2.4
314.729	2.34
315.096	2.36
315.461	2.3
315.827	2.26
316.193	2.22
316.559	2.15
316.925	2.23
317.291	2.15
317.656	2.18
318.022	2.22
318.388	2.13
318.753	2.16
319.119	2.17
319.484	2.12
319.85	2.11
320.215	2.09
320.581	2.03
320.946	1.98
321.311	1.96
321.676	1.92
322.042	1.95
322.407	1.9
322.772	1.83
323.137	1.95
323.502	2.02
323.867	2.02
324.232	1.98
324.597	2.02
324.962	1.99
325.327	2.07
325.691	2.13
326.056	2.08
326.421	2.05
326.785	2.03
327.15	2.03
327.514	2.14
327.879	2.15
328.243	2.14
328.608	2.16
328.972	2.16
329.337	2.07
329.701	2.04
330.065	2.05
330.429	2.09
330.794	2.05
331.158	2.08
331.522	2.18
331.886	2.23
332.25	2.17
332.614	2.16
332.978	2.21
333.342	2.26
333.705	2.31
334.069	2.35
334.433	2.3
334.797	2.22
335.16	2.31
335.524	2.34
335.887	2.26
336.251	2.18
336.614	2.19
336.978	2.15
337.341	2.14
337.705	2.07
338.068	2.12
338.431	2.15
338.794	2.1
339.158	2.05
339.521	1.99
339.884	2.07
340.247	1.95
340.61	1.88
340.973	1.87
341.336	1.95
341.699	1.9
342.062	1.81
342.424	1.7
342.787	1.61
343.15	1.5
343.512	1.52
343.875	1.64
344.238	1.49
344.6	1.39
344.963	1.45
345.325	1.48
345.688	1.42
346.05	1.41
346.412	1.39
346.775	1.5
347.137	1.49
347.499	1.54
347.861	1.49
348.223	1.52
348.585	1.62
348.947	1.5
349.309	1.56
349.671	1.55
350.033	1.65
350.395	1.6
350.757	1.7
351.118	1.75
351.48	1.81
351.842	1.86
352.203	1.94
352.565	1.88
352.927	1.83
353.288	1.84
353.65	1.89
354.011	1.9
354.372	1.88
354.734	1.93
355.095	1.96
355.456	1.99
355.817	1.92
356.179	1.87
356.54	1.88
356.901	1.95
357.262	1.91
357.623	1.8
357.984	1.86
358.345	1.91
358.705	1.93
359.066	1.77
359.427	1.78
359.788	1.73
360.148	1.74
360.509	1.68
360.87	1.66
361.23	1.67
361.591	1.65
361.951	1.75
362.312	1.9
362.672	1.94
363.032	1.99
363.393	2.04
363.753	1.99
364.113	1.98
364.473	2.03
364.833	1.95
365.193	1.99
365.553	1.93
365.913	1.95
366.273	2
366.633	2.02
366.993	2.1
367.353	2.06
367.713	2.05
368.072	2.15
368.432	2.09
368.792	2.15
369.151	2.14
369.511	2.25
369.87	2.19
370.23	2.21
370.589	2.28
370.949	2.14
371.308	2.08
371.667	2.09
372.027	2.09
372.386	2.04
372.745	2.08
373.104	2.02
373.463	1.98
373.822	2.06
374.181	2
374.54	1.99
374.899	1.97
375.258	2.03
375.617	2.11
375.975	2.16
376.334	2.25
376.693	2.34
377.052	2.32
377.41	2.41
377.769	2.36
378.127	2.41
378.486	2.39
378.844	2.54
379.202	2.49
379.561	2.37
379.919	2.32
380.277	2.29
380.636	2.32
380.994	2.26
381.352	2.32
381.71	2.35
382.068	2.38
382.426	2.31
382.784	2.43
383.142	2.49
383.5	2.53
383.857	2.64
384.215	2.62
384.573	2.64
384.931	2.52
385.288	2.46
385.646	2.54
386.003	2.62
386.361	2.59
386.718	2.52
387.076	2.51
387.433	2.48
387.791	2.39
388.148	2.38
388.505	2.49
388.862	2.55
389.22	2.58
389.577	2.59
389.934	2.66
390.291	2.69
390.648	2.73
391.005	2.86
391.362	3.07
391.718	3.02
392.075	3.12
392.432	3.28
392.789	3.21
393.145	3.18
393.502	3.28
393.859	3.41
394.215	3.45
394.572	3.43
394.928	3.48
395.285	3.53
395.641	3.67
395.997	3.76
396.354	3.94
396.71	4.08
397.066	4.15
397.422	4.37
397.778	4.57
398.134	4.74
398.491	4.89
398.846	5.04
399.202	5.24
399.558	5.37
399.914	5.54
400.27	5.61
400.626	5.79
400.981	5.96
401.337	6.16
401.693	6.39
402.048	6.63
402.404	6.76
402.759	7
403.115	7.19
403.47	7.43
403.826	7.78
404.181	8.03
404.536	8.32
404.892	8.53
405.247	8.76
405.602	8.99
405.957	9.43
406.312	9.61
406.667	9.83
407.022	10.1
407.377	10.47
407.732	10.8
408.087	11.02
408.442	11.41
408.796	11.65
409.151	12
409.506	12.33
409.86	12.6
410.215	12.9
410.57	13.41
410.924	13.74
411.279	14.11
411.633	14.43
411.987	14.9
412.342	15.25
412.696	15.48
413.05	15.88
413.404	16.28
413.758	16.78
414.113	17.15
414.467	17.5
414.821	17.87
415.175	18.41
415.529	18.76
415.882	19.11
416.236	19.38
416.59	19.66
416.944	20.14
417.298	20.46
417.651	20.73
418.005	21
418.358	21.38
418.712	21.7
419.065	21.91
419.419	22.08
419.772	22.33
420.126	22.61
420.479	22.88
420.832	23.18
421.185	23.3
421.539	23.56
421.892	23.79
422.245	23.94
422.598	24.08
422.951	24.38
423.304	24.57
423.657	24.75
424.01	24.82
424.363	25.1
424.715	25.39
425.068	25.65
425.421	25.92
425.773	25.99
426.126	26.17
426.479	26.44
426.831	26.65
427.184	26.73
427.536	26.95
427.889	27.25
428.241	27.42
428.593	27.6
428.945	27.83
429.298	28.02
429.65	28.14
430.002	28.45
430.354	28.71
430.706	28.94
431.058	29.14
431.41	29.36
431.762	29.45
432.114	29.7
432.466	29.85
432.817	30.12
433.169	30.29
433.521	30.41
433.872	30.48
434.224	30.51
434.576	30.68
434.927	30.79
435.279	30.81
435.63	31
435.981	31.22
436.333	31.33
436.684	31.34
437.035	31.34
437.387	31.49
437.738	31.36
438.089	31.38
438.44	31.36
438.791	31.34
439.142	31.17
439.493	31.2
439.844	31.18
440.195	31.1
440.545	31.18
440.896	31.2
441.247	31.19
441.598	31.07
441.948	31.09
442.299	31.1
442.649	31.09
443	31.15
443.35	31.14
443.701	31.12
444.051	31.23
444.401	31.21
444.752	31.01
445.102	30.98
445.452	30.98
445.802	31.14
446.152	31.21
446.502	31.46
446.852	31.55
447.202	31.62
447.552	31.79
447.902	32.03
448.252	32.03
448.602	31.07
448.952	31.15
449.301	31.14
449.651	31.22
450.001	31.27
450.35	31.34
450.7	31.36
451.049	31.41
451.399	31.59
451.748	31.66
452.097	31.79
452.447	31.82
452.796	31.95
453.145	32.11
453.494	32.41
453.843	32.45
454.193	32.61
454.542	32.69
454.891	32.6
455.239	32.59
455.588	32.64
455.937	32.64
456.286	32.59
456.635	32.63
456.984	32.78
457.332	34.15
457.681	34.21
458.03	34.27
458.378	34.18
458.727	34.43
459.075	34.55
459.423	34.65
459.772	34.65
460.12	34.7
460.468	34.8
460.817	34.75
461.165	34.72
461.513	34.76
461.861	34.7
462.209	34.6
462.557	34.67
462.905	34.71
463.253	34.82
463.601	34.86
463.949	34.94
464.297	34.83
464.644	34.83
464.992	34.95
465.34	35.02
465.687	34.89
466.035	34.77
466.383	34.84
466.73	34.93
467.078	34.89
467.425	34.61
467.772	34.56
468.12	34.37
468.467	34.41
468.814	34.39
469.161	34.28
469.508	34.25
469.856	34.3
470.203	34.12
470.55	34.02
470.897	33.84
471.243	33.8
471.59	33.59
471.937	33.36
472.284	33.42
472.631	33.25
472.977	33.22
473.324	33.2
473.671	32.95
474.017	32.64
474.364	32.64
474.71	32.54
475.057	32.43
475.403	32.2
475.749	32.12
476.096	32.13
476.442	32.07
476.788	32.09
477.134	31.9
477.48	31.71
477.826	31.55
478.172	31.5
478.518	31.43
478.864	31.36
479.21	31.34
479.556	31.38
479.902	31.21
480.248	31.16
480.593	31.07
480.939	30.94
481.285	30.84
481.63	30.82
481.976	30.74
482.321	30.73
482.667	30.73
483.012	30.69
483.357	30.75
483.703	30.73
484.048	30.77
484.393	30.76
484.738	30.67
485.084	30.63
485.429	30.64
485.774	30.67
486.119	30.71
486.464	30.78
486.808	30.8
487.153	30.73
487.498	30.7
487.843	30.65
488.188	30.6
488.532	30.74
488.877	30.74
489.222	30.76
489.566	30.82
489.911	30.85
490.255	30.91
490.6	30.91
490.944	30.8
491.288	30.81
491.633	30.72
491.977	30.49
492.321	30.42
492.665	30.28
493.009	30.24
493.353	30.24
493.697	30.14
494.041	30.03
494.385	29.92
494.729	29.79
495.073	29.65
495.417	29.5
495.76	29.42
496.104	29.38
496.448	29.26
496.791	29.2
497.135	29.08
497.479	28.94
497.822	28.89
498.165	28.64
498.509	28.58
498.852	28.41
499.196	28.33
499.539	28.38
499.882	28.18
500.225	28.07
500.568	27.99
500.911	27.88
501.254	27.83
501.597	27.8
501.94	27.64
502.283	27.64
502.626	27.55
502.969	27.47
503.312	27.41
503.654	27.39
503.997	27.31
504.34	27.25
504.682	27.1
505.025	27.09
505.367	26.95
505.71	26.7
506.052	26.61
506.395	26.4
506.737	26.33
507.079	26.21
507.421	26.01
507.764	25.87
508.106	25.68
508.448	25.65
508.79	25.49
509.132	25.44
509.474	25.24
509.816	25.04
510.158	24.92
510.499	24.94
510.841	24.81
511.183	24.68
511.525	24.6
511.866	24.61
512.208	24.36
512.549	24.21
512.891	24.16
513.232	24.1
513.574	23.88
513.915	23.75
514.256	23.78
514.598	23.7
514.939	23.59
515.28	23.44
515.621	23.33
515.962	23.19
516.303	23.1
516.644	23.14
516.985	23.03
517.326	22.98
517.667	22.88
518.008	22.89
518.349	22.89
518.69	22.81
519.03	22.61
519.371	22.41
519.712	22.28
520.052	22.13
520.393	21.94
520.733	21.98
521.074	22.01
521.414	21.77
521.754	21.62
522.095	21.54
522.435	21.46
522.775	21.28
523.115	21.3
523.455	21.1
523.795	21.07
524.135	20.91
524.475	20.91
524.815	20.73
525.155	20.56
525.495	20.5
525.835	20.44
526.175	20.35
526.514	20.26
526.854	20.15
527.194	20.04
527.533	20
527.873	19.95
528.212	19.87
528.552	19.99
528.891	19.89
529.23	19.83
529.57	19.72
529.909	19.64
530.248	19.64
530.587	19.63
530.927	19.59
531.266	19.52
531.605	19.29
531.944	19.27
532.283	19.24
532.621	19.16
532.96	19.09
533.299	19.08
533.638	19.05
533.977	18.96
534.315	18.95
534.654	18.83
534.992	18.81
535.331	18.72
535.67	18.61
536.008	18.46
536.346	18.3
536.685	18.16
537.023	17.88
537.361	17.79
537.7	17.59
538.038	17.47
538.376	17.49
538.714	17.42
539.052	17.3
539.39	17.24
539.728	17.22
540.066	17.13
540.404	17.16
540.741	17.07
541.079	17.01
541.417	17
541.755	16.94
542.092	16.76
542.43	16.65
542.767	16.41
543.105	16.43
543.442	16.31
543.78	16.33
544.117	16.16
544.454	16.11
544.792	16.21
545.129	16.34
545.466	16.32
545.803	16.31
546.14	16.36
546.477	16.14
546.814	16.08
547.151	16.09
547.488	16.23
547.825	16.13
548.162	16.17
548.499	16.31
548.835	16.26
549.172	16.26
549.509	16.22
549.845	16.08
550.182	16.04
550.518	16.05
550.855	16.09
551.191	16.29
551.528	16.25
551.864	16.39
552.2	16.35
552.537	16.6
552.873	16.67
553.209	16.52
553.545	16.34
553.881	16.47
554.217	16.39
554.553	16.38
554.889	16.43
555.225	16.51
555.561	16.45
555.896	16.2
556.232	16.28
556.568	16.17
556.903	16.07
557.239	16.13
557.575	16.24
557.91	16.27
558.245	16.37
558.581	16.57
558.916	16.61
559.252	16.55
559.587	16.44
559.922	16.51
560.257	16.4
560.592	16.55
560.928	16.3
561.263	16.33
561.598	16.37
561.933	16.43
562.267	16.49
562.602	16.61
562.937	16.64
563.272	16.87
563.607	16.79
563.941	16.68
564.276	16.78
564.611	16.76
564.945	16.83
565.28	16.87
565.614	16.99
565.949	16.95
566.283	17.05
566.617	17.1
566.951	17.09
567.286	17.22
567.62	17.3
567.954	17.4
568.288	17.41
568.622	17.4
568.956	17.48
569.29	17.57
569.624	17.61
569.958	17.72
570.292	17.82
570.626	17.75
570.959	17.72
571.293	17.76
571.627	17.82
571.96	18
572.294	18.1
572.627	18.21
572.961	18.32
573.294	18.41
573.627	18.5
573.961	18.4
574.294	18.43
574.627	18.45
574.961	18.49
575.294	18.46
575.627	18.43
575.96	18.51
576.293	18.49
576.626	18.52
576.959	18.63
577.292	18.62
577.624	18.74
577.957	18.73
578.29	18.77
578.623	18.78
578.955	18.87
579.288	18.98
579.62	19.06
579.953	19.08
580.285	19.1
580.618	19.21
580.95	19.17
581.282	19.24
581.615	19.18
581.947	19.25
582.279	19.4
582.611	19.54
582.943	19.62
583.275	19.66
583.607	19.75
583.939	19.78
584.271	19.84
584.603	19.98
584.935	20.13
585.267	20.22
585.598	20.19
585.93	20.23
586.262	20.34
586.593	20.45
586.925	20.51
587.256	20.6
587.588	20.69
587.919	20.73
588.25	20.85
588.582	20.87
588.913	20.89
589.244	21.1
589.575	21.25
589.907	21.37
590.238	21.39
590.569	21.51
590.9	21.65
591.231	21.73
591.562	21.79
591.892	21.84
592.223	21.98
592.554	22.12
592.885	22.25
593.215	22.34
593.546	22.31
593.877	22.45
594.207	22.61
594.538	22.81
594.868	23.05
595.198	23.32
595.529	23.35
595.859	23.38
596.189	23.56
596.52	23.63
596.85	23.72
597.18	23.88
597.51	23.84
597.84	23.84
598.17	24.14
598.5	24.33
598.83	24.43
599.16	24.51
599.489	24.76
599.819	25
600.149	25.35
600.479	25.56
600.808	25.66
601.138	25.88
601.467	25.97
601.797	26.33
602.126	26.58
602.456	26.86
602.785	27.14
603.114	27.26
603.443	27.22
603.773	27.56
604.102	27.94
604.431	28.26
604.76	28.6
605.089	28.88
605.418	29.08
605.747	29.53
606.076	29.82
606.405	29.95
606.733	30.17
607.062	30.45
607.391	30.63
607.72	30.9
608.048	31.19
608.377	31.43
608.705	31.96
609.034	32.48
609.362	32.83
609.69	33.26
610.019	33.55
610.347	33.82
610.675	33.79
611.004	33.85
611.332	34.18
611.66	34.78
611.988	35.03
612.316	35.13
612.644	35.09
612.972	35.2
613.3	35.34
613.627	35.67
613.955	35.99
614.283	36.43
614.611	36.7
614.938	36.97
615.266	37.26
615.593	37.72
615.921	38.06
616.248	38.44
616.576	38.7
616.903	38.92
617.23	39.16
617.558	39.64
617.885	39.99
618.212	40.29
618.539	40.7
618.866	41.16
619.193	41.64
619.52	41.71
619.847	41.91
620.174	42.14
620.501	42.5
620.828	42.96
621.155	43.36
621.481	43.97
621.808	44.29
622.135	44.39
622.461	44.23
622.788	44.23
623.114	44.68
623.441	44.86
623.767	45.08
624.093	45.37
624.42	45.82
624.746	46.22
625.072	46.34
625.398	46.54
625.725	46.43
626.051	46.9
626.377	47.31
626.703	47.76
627.029	48.23
627.354	48.29
627.68	48.59
628.006	48.72
628.332	49.23
628.658	49.53
628.983	49.74
629.309	50.02
629.634	49.77
629.96	49.84
630.285	50.42
630.611	50.73
630.936	51.54
631.262	51.31
631.587	51.5
631.912	51.65
632.237	51.88
632.562	51.85
632.887	51.94
633.213	51.92
633.538	52.71
633.863	53.58
634.187	53.47
634.512	53.7
634.837	53.86
635.162	53.66
635.487	53.27
635.811	53.26
636.136	53.62
636.461	53.65
636.785	53.98
637.11	54.28
637.434	53.97
637.758	54.69
638.083	55.17
638.407	54.89
638.731	55.38
639.056	55.29
639.38	55.35
639.704	55.85
640.028	55.57
640.352	56.06
640.676	55.62
641	56.26
641.324	56.4
641.648	55.76
641.972	55.43
642.295	56.26
642.619	55.96
642.943	55.29
643.266	55.38
643.59	56.52
643.913	56.94
644.237	56.93
644.56	56.78
644.884	57.04
645.207	57.35
645.53	57.5
645.854	57.21
646.177	57.24
646.5	57.61
646.823	57.73
647.146	57.99
647.469	58.35
647.792	58.54
648.115	58.68
648.438	58.57
648.761	59.8
649.084	60.17
649.406	60.54
649.729	60.7
650.052	60.78
650.374	60.91
650.697	61.36
651.019	61.43
651.342	61.69
651.664	61.37
651.987	61.3
652.309	61.39
652.631	61.55
652.953	61.54
653.276	61.32
653.598	61.69
653.92	61.65
654.242	61.77
654.564	61.79
654.886	61.74
655.208	61.71
655.53	61.61
655.851	61.77
656.173	61.94
656.495	62.09
656.816	62.08
657.138	62.09
657.46	62.52
657.781	63.66
658.103	64.03
