Data from T2_Reflection__25__00-33-48-963.txt Node

Date: Fri Jun 04 00:33:48 CEST 2021
User: mabdelazizm
Spectrometer: FLMS18565
Trigger mode: 0
Integration Time (sec): 2.000000E0
Scans to average: 1
Electric dark correction enabled: true
Nonlinearity correction enabled: false
Boxcar width: 12
XAxis mode: Wavelengths
Number of Pixels in Spectrum: 2048
>>>>>Begin Spectral Data<<<<<
179.071	38.57
179.452	-59.92
179.833	-2.79
180.214	900
180.595	115.21
180.977	172.41
181.358	1457.14
181.739	-527.27
182.12	-6
182.501	17.77
182.882	-3.07
183.262	18.93
183.643	12.82
184.024	-1.55
184.405	9.3
184.786	32.18
185.166	30.89
185.547	22.72
185.927	26.12
186.308	19.84
186.689	33.83
187.069	32.5
187.449	33.07
187.83	34.17
188.21	26.67
188.59	24.49
188.971	24.71
189.351	29.71
189.731	31.89
190.111	32.96
190.491	34.35
190.871	34.13
191.251	34.36
191.631	30.39
192.011	27.52
192.391	29.02
192.771	29.93
193.151	27.84
193.531	27.73
193.91	27.56
194.29	26.63
194.67	28.89
195.049	31.15
195.429	32.11
195.808	32.26
196.188	28.99
196.567	28.72
196.946	31.59
197.326	30.66
197.705	29.69
198.084	30.59
198.464	27.66
198.843	27.15
199.222	27.09
199.601	27.36
199.98	27.91
200.359	30.85
200.738	32.15
201.117	33.3
201.496	31.88
201.875	29.44
202.254	26.05
202.632	28.4
203.011	31.06
203.39	28.86
203.768	27.77
204.147	26.06
204.525	22.61
204.904	19.99
205.282	19.66
205.661	22.89
206.039	21.93
206.418	20.44
206.796	19.26
207.174	21.62
207.552	23.5
207.931	22.32
208.309	21.48
208.687	21.57
209.065	21.06
209.443	19.68
209.821	18.52
210.199	19.1
210.577	17.83
210.954	19.58
211.332	21.39
211.71	22.08
212.088	20.68
212.465	20.84
212.843	23.61
213.221	20.72
213.598	22.05
213.976	23.35
214.353	24.75
214.731	25.55
215.108	24.76
215.485	23.54
215.863	21.67
216.24	20.14
216.617	18.71
216.994	17.1
217.371	16.76
217.749	16.61
218.126	15.25
218.503	15.55
218.88	14.87
219.256	15.02
219.633	12.05
220.01	11.37
220.387	10.86
220.764	10.55
221.14	10.76
221.517	10.33
221.894	8.06
222.27	7.49
222.647	8.66
223.023	7.77
223.4	7.89
223.776	7.22
224.153	6.42
224.529	4.76
224.905	4.56
225.282	4.8
225.658	5.29
226.034	5.1
226.41	5.07
226.786	4.86
227.162	4.94
227.538	5.61
227.914	5.52
228.29	5.18
228.666	4.47
229.042	4.71
229.418	4.56
229.793	4.22
230.169	3.92
230.545	3.91
230.92	3.89
231.296	4.35
231.672	4.13
232.047	3.98
232.422	3.68
232.798	3.79
233.173	3.89
233.549	4.05
233.924	4.13
234.299	4.38
234.674	4.39
235.05	4.49
235.425	4.38
235.8	4.1
236.175	4.15
236.55	4.07
236.925	3.93
237.3	3.69
237.675	3.66
238.049	3.63
238.424	3.77
238.799	3.74
239.174	3.78
239.548	3.86
239.923	3.69
240.297	3.73
240.672	3.56
241.046	3.57
241.421	3.52
241.795	3.56
242.17	3.43
242.544	3.21
242.918	3.24
243.293	3.26
243.667	3.34
244.041	3.31
244.415	3.23
244.789	3.24
245.163	3.32
245.537	3.27
245.911	3.16
246.285	3.11
246.659	3.13
247.033	3.09
247.406	3.16
247.78	3.13
248.154	3.15
248.528	3.21
248.901	3.24
249.275	3.33
249.648	3.29
250.022	3.32
250.395	3.3
250.769	3.25
251.142	3.27
251.515	3.22
251.888	3.28
252.262	3.21
252.635	3.25
253.008	3.21
253.381	3.12
253.754	3.09
254.127	3.05
254.5	3.04
254.873	3.09
255.246	3.17
255.619	3.17
255.992	3.18
256.364	3.21
256.737	3.21
257.11	3.14
257.483	3.03
257.855	2.96
258.228	2.9
258.6	2.86
258.973	2.8
259.345	2.74
259.718	2.71
260.09	2.73
260.462	2.66
260.834	2.72
261.207	2.7
261.579	2.78
261.951	2.67
262.323	2.54
262.695	2.56
263.067	2.67
263.439	2.71
263.811	2.76
264.183	2.69
264.555	2.66
264.927	2.7
265.298	2.73
265.67	2.72
266.042	2.68
266.413	2.63
266.785	2.72
267.156	2.81
267.528	2.8
267.899	2.72
268.271	2.78
268.642	2.82
269.013	2.87
269.385	2.89
269.756	2.91
270.127	2.9
270.498	2.92
270.87	2.85
271.241	2.91
271.612	2.94
271.983	2.9
272.354	2.8
272.724	2.77
273.095	2.75
273.466	2.7
273.837	2.68
274.208	2.65
274.578	2.61
274.949	2.61
275.32	2.59
275.69	2.61
276.061	2.66
276.431	2.59
276.802	2.63
277.172	2.69
277.542	2.61
277.913	2.59
278.283	2.61
278.653	2.58
279.023	2.59
279.394	2.6
279.764	2.63
280.134	2.62
280.504	2.59
280.874	2.61
281.244	2.64
281.614	2.6
281.983	2.64
282.353	2.56
282.723	2.62
283.093	2.6
283.462	2.61
283.832	2.59
284.202	2.6
284.571	2.54
284.941	2.59
285.31	2.57
285.68	2.6
286.049	2.57
286.418	2.54
286.788	2.58
287.157	2.58
287.526	2.54
287.895	2.54
288.264	2.5
288.633	2.44
289.002	2.42
289.371	2.38
289.74	2.39
290.109	2.38
290.478	2.44
290.847	2.48
291.216	2.4
291.585	2.4
291.953	2.44
292.322	2.48
292.691	2.46
293.059	2.44
293.428	2.38
293.796	2.38
294.165	2.36
294.533	2.36
294.901	2.34
295.27	2.33
295.638	2.39
296.006	2.31
296.374	2.31
296.743	2.36
297.111	2.37
297.479	2.38
297.847	2.38
298.215	2.38
298.583	2.35
298.95	2.32
299.318	2.37
299.686	2.33
300.054	2.3
300.422	2.36
300.789	2.42
301.157	2.34
301.525	2.28
301.892	2.26
302.26	2.3
302.627	2.35
302.994	2.34
303.362	2.34
303.729	2.33
304.097	2.27
304.464	2.25
304.831	2.23
305.198	2.29
305.565	2.26
305.932	2.17
306.299	2.13
306.666	2.18
307.033	2.13
307.4	2.1
307.767	2.08
308.134	2.09
308.501	2.02
308.867	1.95
309.234	1.96
309.601	1.9
309.967	1.84
310.334	1.83
310.701	1.81
311.067	1.8
311.433	1.82
311.8	1.82
312.166	1.86
312.533	1.86
312.899	1.83
313.265	1.8
313.631	1.8
313.997	1.76
314.363	1.71
314.729	1.63
315.096	1.71
315.461	1.7
315.827	1.71
316.193	1.69
316.559	1.66
316.925	1.76
317.291	1.71
317.656	1.67
318.022	1.73
318.388	1.65
318.753	1.75
319.119	1.78
319.484	1.88
319.85	1.82
320.215	1.89
320.581	1.85
320.946	1.89
321.311	1.85
321.676	1.84
322.042	1.82
322.407	1.82
322.772	1.78
323.137	1.76
323.502	1.82
323.867	1.97
324.232	1.9
324.597	1.96
324.962	1.92
325.327	2.05
325.691	2.12
326.056	2.02
326.421	2.04
326.785	2.11
327.15	2.14
327.514	2.21
327.879	2.15
328.243	2.19
328.608	2.13
328.972	2.17
329.337	2.02
329.701	1.95
330.065	1.93
330.429	1.96
330.794	1.84
331.158	1.99
331.522	2.13
331.886	2.17
332.25	2.17
332.614	2.07
332.978	1.99
333.342	2.06
333.705	2.05
334.069	2.07
334.433	2.03
334.797	1.91
335.16	1.94
335.524	1.95
335.887	1.87
336.251	1.82
336.614	1.82
336.978	1.78
337.341	1.71
337.705	1.71
338.068	1.75
338.431	1.79
338.794	1.78
339.158	1.71
339.521	1.71
339.884	1.79
340.247	1.59
340.61	1.53
340.973	1.44
341.336	1.48
341.699	1.56
342.062	1.49
342.424	1.37
342.787	1.34
343.15	1.23
343.512	1.24
343.875	1.32
344.238	1.31
344.6	1.27
344.963	1.36
345.325	1.36
345.688	1.34
346.05	1.35
346.412	1.37
346.775	1.42
347.137	1.42
347.499	1.5
347.861	1.59
348.223	1.65
348.585	1.65
348.947	1.6
349.309	1.72
349.671	1.61
350.033	1.71
350.395	1.68
350.757	1.71
351.118	1.76
351.48	1.79
351.842	1.79
352.203	1.9
352.565	1.84
352.927	1.79
353.288	1.79
353.65	1.76
354.011	1.64
354.372	1.55
354.734	1.58
355.095	1.65
355.456	1.69
355.817	1.61
356.179	1.58
356.54	1.54
356.901	1.51
357.262	1.45
357.623	1.43
357.984	1.51
358.345	1.47
358.705	1.49
359.066	1.39
359.427	1.44
359.788	1.52
360.148	1.56
360.509	1.59
360.87	1.5
361.23	1.44
361.591	1.39
361.951	1.51
362.312	1.56
362.672	1.65
363.032	1.66
363.393	1.69
363.753	1.64
364.113	1.64
364.473	1.64
364.833	1.67
365.193	1.69
365.553	1.67
365.913	1.68
366.273	1.67
366.633	1.71
366.993	1.7
367.353	1.65
367.713	1.6
368.072	1.64
368.432	1.54
368.792	1.44
369.151	1.42
369.511	1.37
369.87	1.42
370.23	1.49
370.589	1.59
370.949	1.51
371.308	1.47
371.667	1.43
372.027	1.45
372.386	1.54
372.745	1.59
373.104	1.52
373.463	1.47
373.822	1.52
374.181	1.49
374.54	1.5
374.899	1.47
375.258	1.5
375.617	1.56
375.975	1.64
376.334	1.72
376.693	1.81
377.052	1.84
377.41	1.98
377.769	1.98
378.127	2.04
378.486	2.05
378.844	2.18
379.202	2.22
379.561	2.12
379.919	2.05
380.277	2.1
380.636	2.17
380.994	2.3
381.352	2.38
381.71	2.37
382.068	2.43
382.426	2.44
382.784	2.47
383.142	2.54
383.5	2.56
383.857	2.67
384.215	2.7
384.573	2.74
384.931	2.68
385.288	2.66
385.646	2.8
386.003	2.84
386.361	2.78
386.718	2.84
387.076	2.75
387.433	2.82
387.791	2.8
388.148	2.81
388.505	2.94
388.862	3.1
389.22	3.22
389.577	3.29
389.934	3.29
390.291	3.33
390.648	3.44
391.005	3.57
391.362	3.72
391.718	3.78
392.075	3.82
392.432	3.94
392.789	4.09
393.145	4.23
393.502	4.41
393.859	4.6
394.215	4.73
394.572	4.92
394.928	5.14
395.285	5.42
395.641	5.62
395.997	5.98
396.354	6.17
396.71	6.43
397.066	6.63
397.422	6.98
397.778	7.3
398.134	7.59
398.491	7.86
398.846	8.17
399.202	8.55
399.558	8.87
399.914	9.23
400.27	9.56
400.626	9.92
400.981	10.45
401.337	10.89
401.693	11.34
402.048	11.82
402.404	12.17
402.759	12.68
403.115	13.26
403.47	13.71
403.826	14.19
404.181	14.63
404.536	15.06
404.892	15.51
405.247	16.07
405.602	16.58
405.957	17.15
406.312	17.63
406.667	18.18
407.022	18.65
407.377	19.28
407.732	19.91
408.087	20.4
408.442	21.06
408.796	21.52
409.151	22.08
409.506	22.75
409.86	23.18
410.215	23.75
410.57	24.27
410.924	24.77
411.279	25.32
411.633	25.75
411.987	26.34
412.342	26.88
412.696	27.34
413.05	27.79
413.404	28.4
413.758	29
414.113	29.64
414.467	30.04
414.821	30.49
415.175	31.06
415.529	31.51
415.882	32.02
416.236	32.42
416.59	32.79
416.944	33.33
417.298	33.74
417.651	34.11
418.005	34.49
418.358	35.02
418.712	35.44
419.065	35.83
419.419	36.24
419.772	36.61
420.126	37.11
420.479	37.43
420.832	37.66
421.185	37.8
421.539	38.08
421.892	38.41
422.245	38.64
422.598	38.85
422.951	39.06
423.304	39.22
423.657	39.48
424.01	39.68
424.363	39.9
424.715	40.19
425.068	40.51
425.421	40.85
425.773	41.13
426.126	41.45
426.479	41.85
426.831	42.09
427.184	42.1
427.536	42.4
427.889	42.56
428.241	42.68
428.593	42.93
428.945	43.01
429.298	43.26
429.65	43.44
430.002	43.7
430.354	43.93
430.706	44.21
431.058	44.48
431.41	44.69
431.762	44.93
432.114	45.26
432.466	45.43
432.817	45.64
433.169	45.74
433.521	45.87
433.872	45.82
434.224	45.75
434.576	45.72
434.927	45.79
435.279	45.62
435.63	45.71
435.981	45.87
436.333	45.87
436.684	45.84
437.035	45.78
437.387	45.6
437.738	45.61
438.089	45.61
438.44	45.62
438.791	45.71
439.142	45.68
439.493	45.69
439.844	45.58
440.195	45.49
440.545	45.32
440.896	45.35
441.247	45.28
441.598	45.05
441.948	45.06
442.299	44.93
442.649	44.96
443	45.01
443.35	44.87
443.701	44.68
444.051	44.8
444.401	44.88
444.752	44.65
445.102	44.6
445.452	44.59
445.802	44.68
446.152	44.97
446.502	44.97
446.852	44.89
447.202	44.78
447.552	44.68
447.902	44.72
448.252	44.78
448.602	45.17
448.952	45.32
449.301	45.49
449.651	45.51
450.001	45.65
450.35	45.87
450.7	45.92
451.049	46.15
451.399	46.22
451.748	46.3
452.097	46.53
452.447	46.67
452.796	46.85
453.145	46.93
453.494	47.19
453.843	47.16
454.193	47.38
454.542	47.45
454.891	47.28
455.239	47.38
455.588	47.54
455.937	47.87
456.286	48.06
456.635	48
456.984	48.08
457.332	47.86
457.681	47.91
458.03	47.9
458.378	48.01
458.727	48.04
459.075	47.98
459.423	48.13
459.772	48.11
460.12	48.12
460.468	48.16
460.817	48.18
461.165	48.05
461.513	47.93
461.861	47.86
462.209	47.71
462.557	47.9
462.905	47.91
463.253	47.94
463.601	47.91
463.949	47.96
464.297	47.81
464.644	47.58
464.992	47.47
465.34	47.6
465.687	47.35
466.035	47.15
466.383	46.96
466.73	46.83
467.078	46.6
467.425	46.46
467.772	46.59
468.12	46.36
468.467	46.16
468.814	46.26
469.161	46.1
469.508	45.88
469.856	45.84
470.203	45.62
470.55	45.56
470.897	45.49
471.243	45.27
471.59	45.04
471.937	44.95
472.284	44.94
472.631	44.55
472.977	44.45
473.324	44.4
473.671	44.29
474.017	43.94
474.364	43.96
474.71	43.77
475.057	43.67
475.403	43.56
475.749	43.47
476.096	43.35
476.442	43.06
476.788	42.9
477.134	42.8
477.48	42.6
477.826	42.4
478.172	42.29
478.518	42.24
478.864	42.3
479.21	42.07
479.556	41.94
479.902	41.86
480.248	41.78
480.593	41.6
480.939	41.55
481.285	41.58
481.63	41.69
481.976	41.6
482.321	41.66
482.667	41.7
483.012	41.7
483.357	41.8
483.703	41.75
484.048	41.75
484.393	41.72
484.738	41.77
485.084	41.8
485.429	41.92
485.774	41.95
486.119	42.03
486.464	42.07
486.808	41.99
487.153	41.94
487.498	41.96
487.843	42.01
488.188	42.17
488.532	42.27
488.877	42.35
489.222	42.42
489.566	42.4
489.911	42.52
490.255	42.44
490.6	42.48
490.944	42.32
491.288	42.32
491.633	42.2
491.977	42.03
492.321	42.02
492.665	41.86
493.009	41.81
493.353	41.73
493.697	41.66
494.041	41.56
494.385	41.42
494.729	41.21
495.073	41.13
495.417	41.2
495.76	41.17
496.104	40.98
496.448	40.81
496.791	40.52
497.135	40.32
497.479	40.23
497.822	40.04
498.165	39.88
498.509	39.74
498.852	39.46
499.196	39.27
499.539	39.14
499.882	38.98
500.225	38.74
500.568	38.59
500.911	38.46
501.254	38.39
501.597	38.29
501.94	38.17
502.283	38.01
502.626	37.81
502.969	37.65
503.312	37.54
503.654	37.46
503.997	37.24
504.34	37.1
504.682	36.9
505.025	36.86
505.367	36.78
505.71	36.46
506.052	36.18
506.395	36.11
506.737	35.95
507.079	35.66
507.421	35.56
507.764	35.39
508.106	35.28
508.448	35.15
508.79	35.21
509.132	35.13
509.474	34.99
509.816	34.81
510.158	34.6
510.499	34.41
510.841	34.26
511.183	34.12
511.525	34
511.866	33.89
512.208	33.63
512.549	33.41
512.891	33.23
513.232	33.09
513.574	33.02
513.915	32.96
514.256	32.97
514.598	32.93
514.939	32.74
515.28	32.58
515.621	32.51
515.962	32.4
516.303	32.38
516.644	32.22
516.985	32.07
517.326	31.87
517.667	31.79
518.008	31.62
518.349	31.6
518.69	31.63
519.03	31.65
519.371	31.55
519.712	31.41
520.052	31.34
520.393	31.23
520.733	31.25
521.074	31.18
521.414	31.11
521.754	31.05
522.095	30.95
522.435	30.86
522.775	30.76
523.115	30.7
523.455	30.6
523.795	30.57
524.135	30.39
524.475	30.28
524.815	29.95
525.155	29.93
525.495	29.84
525.835	29.7
526.175	29.54
526.514	29.5
526.854	29.44
527.194	29.29
527.533	28.98
527.873	28.82
528.212	28.72
528.552	28.62
528.891	28.5
529.23	28.4
529.57	28.33
529.909	28.16
530.248	28.13
530.587	27.89
530.927	27.76
531.266	27.65
531.605	27.45
531.944	27.28
532.283	27.11
532.621	27.11
532.96	27.13
533.299	27.21
533.638	27.06
533.977	27.06
534.315	26.91
534.654	26.83
534.992	26.74
535.331	26.49
535.67	26.36
536.008	26.35
536.346	26.28
536.685	26.2
537.023	26.1
537.361	25.95
537.7	25.82
538.038	25.68
538.376	25.7
538.714	25.58
539.052	25.52
539.39	25.4
539.728	25.41
540.066	25.34
540.404	25.34
540.741	25.23
541.079	25.14
541.417	25.03
541.755	24.85
542.092	24.72
542.43	24.62
542.767	24.53
543.105	24.39
543.442	24.19
543.78	24.18
544.117	23.96
544.454	23.89
544.792	23.83
545.129	23.87
545.466	23.81
545.803	23.88
546.14	23.97
546.477	23.92
546.814	23.9
547.151	23.91
547.488	23.86
547.825	23.75
548.162	23.7
548.499	23.66
548.835	23.64
549.172	23.63
549.509	23.45
549.845	23.39
550.182	23.48
550.518	23.49
550.855	23.49
551.191	23.67
551.528	23.61
551.864	23.77
552.2	23.77
552.537	23.92
552.873	23.96
553.209	24.03
553.545	23.99
553.881	24.03
554.217	24
554.553	24.04
554.889	24.09
555.225	23.98
555.561	24.07
555.896	24
556.232	24.14
556.568	24.1
556.903	24.15
557.239	24.22
557.575	24.32
557.91	24.46
558.245	24.49
558.581	24.53
558.916	24.62
559.252	24.64
559.587	24.48
559.922	24.64
560.257	24.62
560.592	24.74
560.928	24.75
561.263	24.81
561.598	24.93
561.933	24.89
562.267	25.09
562.602	25.15
562.937	25.04
563.272	25.1
563.607	25.09
563.941	24.97
564.276	25.05
564.611	24.88
564.945	24.91
565.28	24.87
565.614	24.82
565.949	24.88
566.283	24.97
566.617	25.05
566.951	25.06
567.286	25.11
567.62	25.04
567.954	25.12
568.288	25.09
568.622	25.03
568.956	25.04
569.29	24.97
569.624	24.95
569.958	24.93
570.292	25.08
570.626	25.03
570.959	25
571.293	25.09
571.627	25.15
571.96	25.29
572.294	25.43
572.627	25.48
572.961	25.65
573.294	25.65
573.627	25.78
573.961	25.89
574.294	25.94
574.627	25.93
574.961	25.97
575.294	25.98
575.627	25.87
575.96	25.92
576.293	25.81
576.626	25.89
576.959	26.06
577.292	26.12
577.624	26.26
577.957	26.21
578.29	26.27
578.623	26.32
578.955	26.36
579.288	26.46
579.62	26.59
579.953	26.62
580.285	26.62
580.618	26.61
580.95	26.59
581.282	26.59
581.615	26.74
581.947	26.81
582.279	26.8
582.611	26.84
582.943	26.92
583.275	26.98
583.607	27.02
583.939	27.27
584.271	27.49
584.603	27.73
584.935	27.73
585.267	27.8
585.598	27.79
585.93	27.89
586.262	28.17
586.593	28.25
586.925	28.29
587.256	28.34
587.588	28.41
587.919	28.31
588.25	28.37
588.582	28.46
588.913	28.59
589.244	28.83
589.575	29.09
589.907	29.09
590.238	29.14
590.569	29.28
590.9	29.49
591.231	29.64
591.562	29.77
591.892	29.95
592.223	29.99
592.554	30.02
592.885	30.13
593.215	30.36
593.546	30.41
593.877	30.53
594.207	30.59
594.538	30.66
594.868	30.88
595.198	30.99
595.529	31.13
595.859	31.23
596.189	31.43
596.52	31.59
596.85	31.68
597.18	31.72
597.51	31.81
597.84	31.74
598.17	32.03
598.5	32.27
598.83	32.43
599.16	32.59
599.489	32.74
599.819	32.95
600.149	33.18
600.479	33.52
600.808	33.73
601.138	33.98
601.467	34.15
601.797	34.48
602.126	34.75
602.456	35.14
602.785	35.35
603.114	35.57
603.443	35.81
603.773	36.05
604.102	36.47
604.431	36.8
604.76	37.09
605.089	37.32
605.418	37.61
605.747	37.86
606.076	38.21
606.405	38.33
606.733	38.54
607.062	38.95
607.391	39.1
607.72	39.35
608.048	39.6
608.377	39.68
608.705	40.01
609.034	40.23
609.362	40.58
609.69	40.93
610.019	41.19
610.347	41.62
610.675	41.61
611.004	41.8
611.332	42
611.66	42.34
611.988	42.67
612.316	42.66
612.644	42.81
612.972	43.2
613.3	43.43
613.627	43.8
613.955	44.03
614.283	44.34
614.611	44.52
614.938	44.61
615.266	44.56
615.593	44.87
615.921	45.14
616.248	45.36
616.576	45.95
616.903	46.26
617.23	46.61
617.558	47.01
617.885	47.44
618.212	47.84
618.539	48.1
618.866	48.51
619.193	49.01
619.52	49.26
619.847	49.56
620.174	49.86
620.501	50.42
620.828	50.7
621.155	50.98
621.481	51.51
621.808	51.67
622.135	52.14
622.461	52.42
622.788	52.8
623.114	53.3
623.441	53.65
623.767	54.07
624.093	54.34
624.42	54.94
624.746	55.49
625.072	55.48
625.398	56.04
625.725	56.15
626.051	56.43
626.377	56.9
626.703	57.15
627.029	57.72
627.354	58.22
627.68	58.46
628.006	58.45
628.332	58.7
628.658	59.25
628.983	59.4
629.309	59.45
629.634	59.9
629.96	60.26
630.285	60.78
630.611	60.98
630.936	61.49
631.262	61.77
631.587	62.21
631.912	62.18
632.237	62.85
632.562	62.98
632.887	62.76
633.213	63.04
633.538	63.67
633.863	64.37
634.187	63.97
634.512	63.88
634.837	63.9
635.162	63.86
635.487	63.83
635.811	63.99
636.136	64.56
636.461	64.75
636.785	64.13
637.11	65.09
637.434	64.93
637.758	65.09
638.083	65.35
638.407	64.42
638.731	64.28
639.056	64.45
639.38	64.41
639.704	64.56
640.028	64.96
640.352	65.02
640.676	64.3
641	64.73
641.324	64.63
641.648	64.01
641.972	63.99
642.295	64.99
642.619	64.49
642.943	64.59
643.266	64.1
643.59	64.07
643.913	64.2
644.237	64.42
644.56	64.48
644.884	65.31
645.207	64.79
645.53	64.78
645.854	64.64
646.177	64.57
646.5	65.06
646.823	65.43
647.146	65.74
647.469	65.57
647.792	65.7
648.115	65.76
648.438	66.12
648.761	67.87
649.084	69.49
649.406	69.58
649.729	69.67
650.052	69.81
650.374	69.82
650.697	70.13
651.019	70.23
651.342	70.49
651.664	70.55
651.987	70.55
652.309	70.65
652.631	70.61
652.953	70.47
653.276	70.29
653.598	70.66
653.92	70.61
654.242	70.75
654.564	71.06
654.886	71.09
655.208	70.96
655.53	70.82
655.851	71
656.173	71.14
656.495	71.4
656.816	71.31
657.138	70.74
657.46	71.29
