Data from T2_Reflection__53__00-55-32-921.txt Node

Date: Fri Jun 04 00:55:32 CEST 2021
User: mabdelazizm
Spectrometer: FLMS18565
Trigger mode: 0
Integration Time (sec): 2.000000E0
Scans to average: 1
Electric dark correction enabled: true
Nonlinearity correction enabled: false
Boxcar width: 12
XAxis mode: Wavelengths
Number of Pixels in Spectrum: 2048
>>>>>Begin Spectral Data<<<<<
179.071	675.78
179.452	159.07
179.833	220.56
180.214	3300
180.595	230.88
180.977	326.6
181.358	1822.45
181.739	-772.73
182.12	-52.29
182.501	-59.45
182.882	-45.62
183.262	-5.33
183.643	25.88
184.024	7.09
184.405	16.18
184.786	23.32
185.166	24.83
185.547	22.2
185.927	32.84
186.308	20.71
186.689	35.95
187.069	33.99
187.449	43.2
187.83	38.93
188.21	34.68
188.59	42.1
188.971	33.93
189.351	40.72
189.731	39.98
190.111	42.7
190.491	42.29
190.871	39.54
191.251	42.66
191.631	37.74
192.011	36.59
192.391	32.26
192.771	32.46
193.151	30.51
193.531	31.01
193.91	34.28
194.29	36.2
194.67	38.44
195.049	41.3
195.429	39.33
195.808	43.02
196.188	39.13
196.567	37.47
196.946	37.25
197.326	34.15
197.705	33.44
198.084	29.89
198.464	28.28
198.843	24.97
199.222	26.87
199.601	21.71
199.98	20.83
200.359	21.63
200.738	22.52
201.117	22.9
201.496	22.83
201.875	25.04
202.254	23.14
202.632	22.34
203.011	23.66
203.39	20.36
203.768	17.62
204.147	15.14
204.525	12.17
204.904	11.78
205.282	9.73
205.661	12.26
206.039	12.11
206.418	10.72
206.796	11.34
207.174	14.48
207.552	16.21
207.931	15.91
208.309	15.76
208.687	12.71
209.065	14.85
209.443	15.8
209.821	15.63
210.199	15.39
210.577	15.71
210.954	16.99
211.332	15.91
211.71	15.26
212.088	15.98
212.465	16.63
212.843	15.6
213.221	15.99
213.598	14.97
213.976	15.58
214.353	17.76
214.731	17.91
215.108	16.46
215.485	17.25
215.863	17.23
216.24	17.47
216.617	15.64
216.994	15.37
217.371	16.1
217.749	15.12
218.126	13.87
218.503	13.74
218.88	12.89
219.256	13.46
219.633	11.51
220.01	9.89
220.387	9.78
220.764	11.38
221.14	11.06
221.517	11.58
221.894	10.58
222.27	11.18
222.647	11.23
223.023	11.24
223.4	10.53
223.776	9.27
224.153	9.4
224.529	9.03
224.905	8.19
225.282	8.12
225.658	7.91
226.034	7.4
226.41	6.58
226.786	6.42
227.162	6.75
227.538	7.02
227.914	7.23
228.29	7.01
228.666	5.99
229.042	5.71
229.418	5.85
229.793	5.77
230.169	5.52
230.545	5.62
230.92	5.37
231.296	5.45
231.672	5.4
232.047	5.52
232.422	5.72
232.798	5.85
233.173	5.8
233.549	5.54
233.924	5.48
234.299	5.6
234.674	5.76
235.05	5.79
235.425	5.76
235.8	5.62
236.175	5.59
236.55	5.44
236.925	5.51
237.3	5.22
237.675	5.17
238.049	5.31
238.424	5.58
238.799	5.52
239.174	5.52
239.548	5.51
239.923	5.39
240.297	5.31
240.672	5.32
241.046	5.23
241.421	5.06
241.795	5
242.17	4.94
242.544	4.79
242.918	4.93
243.293	5.06
243.667	5.05
244.041	4.91
244.415	4.89
244.789	5
245.163	5.07
245.537	5.09
245.911	5.1
246.285	5.06
246.659	5.11
247.033	5.05
247.406	5.06
247.78	4.97
248.154	4.95
248.528	4.91
248.901	4.91
249.275	4.99
249.648	5.01
250.022	4.99
250.395	5.02
250.769	5.14
251.142	5.15
251.515	5.14
251.888	5.22
252.262	5.18
252.635	5.12
253.008	5.1
253.381	5.09
253.754	5
254.127	4.95
254.5	4.95
254.873	4.87
255.246	4.85
255.619	4.83
255.992	4.83
256.364	4.82
256.737	4.74
257.11	4.73
257.483	4.68
257.855	4.63
258.228	4.58
258.6	4.53
258.973	4.49
259.345	4.46
259.718	4.45
260.09	4.38
260.462	4.3
260.834	4.29
261.207	4.25
261.579	4.24
261.951	4.22
262.323	4.18
262.695	4.19
263.067	4.26
263.439	4.26
263.811	4.32
264.183	4.3
264.555	4.34
264.927	4.37
265.298	4.38
265.67	4.38
266.042	4.48
266.413	4.4
266.785	4.43
267.156	4.49
267.528	4.45
267.899	4.41
268.271	4.41
268.642	4.42
269.013	4.45
269.385	4.42
269.756	4.38
270.127	4.43
270.498	4.44
270.87	4.39
271.241	4.34
271.612	4.32
271.983	4.29
272.354	4.24
272.724	4.2
273.095	4.18
273.466	4.19
273.837	4.12
274.208	4.06
274.578	3.98
274.949	3.96
275.32	3.9
275.69	3.92
276.061	3.92
276.431	3.89
276.802	3.96
277.172	4.01
277.542	3.92
277.913	3.92
278.283	3.87
278.653	3.88
279.023	3.91
279.394	3.85
279.764	3.84
280.134	3.85
280.504	3.84
280.874	3.87
281.244	3.9
281.614	3.84
281.983	3.8
282.353	3.73
282.723	3.73
283.093	3.73
283.462	3.77
283.832	3.75
284.202	3.74
284.571	3.68
284.941	3.7
285.31	3.75
285.68	3.76
286.049	3.68
286.418	3.59
286.788	3.73
287.157	3.73
287.526	3.71
287.895	3.65
288.264	3.58
288.633	3.52
289.002	3.49
289.371	3.45
289.74	3.47
290.109	3.45
290.478	3.47
290.847	3.54
291.216	3.56
291.585	3.56
291.953	3.51
292.322	3.57
292.691	3.55
293.059	3.6
293.428	3.6
293.796	3.61
294.165	3.61
294.533	3.54
294.901	3.49
295.27	3.47
295.638	3.48
296.006	3.33
296.374	3.27
296.743	3.23
297.111	3.28
297.479	3.21
297.847	3.21
298.215	3.23
298.583	3.24
298.95	3.21
299.318	3.25
299.686	3.13
300.054	3.08
300.422	3.04
300.789	3.03
301.157	3.01
301.525	2.87
301.892	2.81
302.26	2.89
302.627	2.88
302.994	2.83
303.362	2.81
303.729	2.82
304.097	2.75
304.464	2.77
304.831	2.72
305.198	2.73
305.565	2.75
305.932	2.74
306.299	2.71
306.666	2.8
307.033	2.83
307.4	2.74
307.767	2.7
308.134	2.67
308.501	2.57
308.867	2.54
309.234	2.55
309.601	2.48
309.967	2.43
310.334	2.46
310.701	2.5
311.067	2.49
311.433	2.42
311.8	2.44
312.166	2.43
312.533	2.44
312.899	2.44
313.265	2.45
313.631	2.4
313.997	2.43
314.363	2.43
314.729	2.39
315.096	2.43
315.461	2.41
315.827	2.44
316.193	2.36
316.559	2.33
316.925	2.41
317.291	2.37
317.656	2.39
318.022	2.47
318.388	2.33
318.753	2.45
319.119	2.47
319.484	2.48
319.85	2.46
320.215	2.57
320.581	2.55
320.946	2.51
321.311	2.52
321.676	2.47
322.042	2.46
322.407	2.43
322.772	2.4
323.137	2.42
323.502	2.45
323.867	2.45
324.232	2.32
324.597	2.32
324.962	2.3
325.327	2.4
325.691	2.51
326.056	2.41
326.421	2.42
326.785	2.38
327.15	2.36
327.514	2.46
327.879	2.43
328.243	2.46
328.608	2.42
328.972	2.42
329.337	2.2
329.701	2.12
330.065	2.14
330.429	2.18
330.794	2.21
331.158	2.26
331.522	2.38
331.886	2.43
332.25	2.39
332.614	2.37
332.978	2.33
333.342	2.47
333.705	2.52
334.069	2.52
334.433	2.45
334.797	2.36
335.16	2.36
335.524	2.33
335.887	2.29
336.251	2.21
336.614	2.26
336.978	2.26
337.341	2.24
337.705	2.22
338.068	2.27
338.431	2.38
338.794	2.36
339.158	2.33
339.521	2.27
339.884	2.27
340.247	2.1
340.61	2.01
340.973	1.92
341.336	1.92
341.699	1.91
342.062	1.86
342.424	1.75
342.787	1.69
343.15	1.58
343.512	1.62
343.875	1.62
344.238	1.63
344.6	1.64
344.963	1.65
345.325	1.65
345.688	1.6
346.05	1.55
346.412	1.57
346.775	1.6
347.137	1.6
347.499	1.67
347.861	1.7
348.223	1.7
348.585	1.74
348.947	1.72
349.309	1.79
349.671	1.75
350.033	1.89
350.395	1.91
350.757	1.94
351.118	2.02
351.48	2.13
351.842	2.09
352.203	2.15
352.565	2.08
352.927	2.14
353.288	2.15
353.65	2.16
354.011	2.13
354.372	2.11
354.734	2.13
355.095	2.11
355.456	2.07
355.817	2.11
356.179	2.06
356.54	1.98
356.901	1.99
357.262	1.91
357.623	1.91
357.984	1.89
358.345	1.89
358.705	1.89
359.066	1.79
359.427	1.81
359.788	1.89
360.148	1.84
360.509	1.68
360.87	1.72
361.23	1.74
361.591	1.78
361.951	1.87
362.312	1.92
362.672	1.9
363.032	1.95
363.393	1.94
363.753	1.87
364.113	1.94
364.473	1.97
364.833	1.93
365.193	1.94
365.553	2.03
365.913	2.04
366.273	2.1
366.633	2.07
366.993	2.08
367.353	2.1
367.713	2.16
368.072	2.22
368.432	2.09
368.792	1.97
369.151	1.95
369.511	2.06
369.87	2.02
370.23	2.04
370.589	2.02
370.949	1.91
371.308	1.86
371.667	1.9
372.027	1.88
372.386	1.99
372.745	2.04
373.104	1.96
373.463	1.99
373.822	2
374.181	2.01
374.54	1.93
374.899	1.97
375.258	1.99
375.617	2
375.975	2.13
376.334	2.17
376.693	2.16
377.052	2.13
377.41	2.33
377.769	2.38
378.127	2.45
378.486	2.5
378.844	2.62
379.202	2.63
379.561	2.61
379.919	2.57
380.277	2.65
380.636	2.71
380.994	2.85
381.352	2.91
381.71	3
382.068	3.08
382.426	3.04
382.784	3.15
383.142	3.19
383.5	3.32
383.857	3.47
384.215	3.61
384.573	3.76
384.931	3.75
385.288	3.89
385.646	4.04
386.003	4.18
386.361	4.21
386.718	4.28
387.076	4.37
387.433	4.43
387.791	4.41
388.148	4.5
388.505	4.72
388.862	4.94
389.22	5.1
389.577	5.22
389.934	5.38
390.291	5.53
390.648	5.75
391.005	6.03
391.362	6.35
391.718	6.42
392.075	6.64
392.432	6.9
392.789	7.05
393.145	7.24
393.502	7.52
393.859	7.81
394.215	8.05
394.572	8.33
394.928	8.57
395.285	8.81
395.641	9.11
395.997	9.4
396.354	9.83
396.71	10.31
397.066	10.69
397.422	11.13
397.778	11.6
398.134	12.01
398.491	12.49
398.846	12.81
399.202	13.33
399.558	13.7
399.914	14.11
400.27	14.44
400.626	14.95
400.981	15.53
401.337	15.99
401.693	16.47
402.048	17.1
402.404	17.53
402.759	18.09
403.115	18.62
403.47	19.16
403.826	19.8
404.181	20.41
404.536	21.02
404.892	21.66
405.247	22.18
405.602	22.84
405.957	23.45
406.312	23.95
406.667	24.46
407.022	25.12
407.377	25.67
407.732	26.37
408.087	26.97
408.442	27.74
408.796	28.4
409.151	29.13
409.506	29.81
409.86	30.3
410.215	30.93
410.57	31.58
410.924	32.04
411.279	32.74
411.633	33.27
411.987	33.93
412.342	34.51
412.696	35.05
413.05	35.61
413.404	36.2
413.758	36.82
414.113	37.4
414.467	37.86
414.821	38.43
415.175	39.17
415.529	39.75
415.882	40.22
416.236	40.78
416.59	41.31
416.944	41.75
417.298	42.24
417.651	42.64
418.005	43.16
418.358	43.66
418.712	44.14
419.065	44.55
419.419	44.89
419.772	45.31
420.126	45.66
420.479	46.05
420.832	46.37
421.185	46.59
421.539	46.88
421.892	47.3
422.245	47.65
422.598	47.95
422.951	48.3
423.304	48.5
423.657	48.82
424.01	49.05
424.363	49.21
424.715	49.51
425.068	49.77
425.421	50.07
425.773	50.31
426.126	50.56
426.479	50.91
426.831	51.05
427.184	51.13
427.536	51.5
427.889	51.9
428.241	52.25
428.593	52.47
428.945	52.69
429.298	52.87
429.65	53.12
430.002	53.46
430.354	53.76
430.706	53.87
431.058	54.05
431.41	54.3
431.762	54.4
432.114	54.55
432.466	54.63
432.817	54.89
433.169	55.2
433.521	55.4
433.872	55.44
434.224	55.57
434.576	55.76
434.927	55.92
435.279	55.95
435.63	56.18
435.981	56.51
436.333	56.58
436.684	56.39
437.035	56.41
437.387	56.46
437.738	56.59
438.089	56.74
438.44	56.76
438.791	56.98
439.142	57.02
439.493	57.22
439.844	57.18
440.195	57.07
440.545	57.23
440.896	57.46
441.247	57.52
441.598	57.32
441.948	57.39
442.299	57.47
442.649	57.53
443	57.55
443.35	57.46
443.701	57.34
444.051	57.38
444.401	57.49
444.752	57.3
445.102	57.25
445.452	57.29
445.802	57.37
446.152	57.43
446.502	57.38
446.852	57.36
447.202	57.37
447.552	57.2
447.902	57.32
448.252	57.26
448.602	57.67
448.952	57.86
449.301	57.91
449.651	57.86
450.001	57.85
450.35	58.03
450.7	57.95
451.049	57.92
451.399	57.96
451.748	58.02
452.097	58.12
452.447	58.12
452.796	58.14
453.145	57.97
453.494	58.22
453.843	58.02
454.193	58.08
454.542	58.05
454.891	57.99
455.239	58.13
455.588	58.08
455.937	58.17
456.286	58.34
456.635	58.13
456.984	58.18
457.332	57.83
457.681	57.8
458.03	57.65
458.378	57.56
458.727	57.65
459.075	57.62
459.423	57.59
459.772	57.41
460.12	57.42
460.468	57.22
460.817	57.1
461.165	56.99
461.513	57.06
461.861	57.03
462.209	56.73
462.557	56.86
462.905	57
463.253	56.94
463.601	56.74
463.949	56.65
464.297	56.58
464.644	56.47
464.992	56.2
465.34	56.27
465.687	56.28
466.035	56.21
466.383	56.05
466.73	56.15
467.078	56.1
467.425	55.92
467.772	55.87
468.12	55.66
468.467	55.59
468.814	55.65
469.161	55.66
469.508	55.58
469.856	55.47
470.203	55.16
470.55	55.09
470.897	55.07
471.243	55.21
471.59	54.79
471.937	54.75
472.284	54.9
472.631	54.59
472.977	54.57
473.324	54.48
473.671	54.38
474.017	54.08
474.364	53.86
474.71	53.66
475.057	53.52
475.403	53.34
475.749	53.26
476.096	53.1
476.442	53.07
476.788	53.03
477.134	52.85
477.48	52.64
477.826	52.52
478.172	52.48
478.518	52.43
478.864	52.3
479.21	52.18
479.556	51.95
479.902	51.66
480.248	51.64
480.593	51.44
480.939	51.31
481.285	51.26
481.63	51.09
481.976	50.81
482.321	50.82
482.667	50.77
483.012	50.7
483.357	50.61
483.703	50.48
484.048	50.36
484.393	50.16
484.738	50.16
485.084	49.92
485.429	49.83
485.774	49.88
486.119	49.8
486.464	49.69
486.808	49.48
487.153	49.29
487.498	49.19
487.843	48.93
488.188	48.9
488.532	48.72
488.877	48.58
489.222	48.38
489.566	48.25
489.911	48.13
490.255	48.03
490.6	47.92
490.944	47.64
491.288	47.53
491.633	47.3
491.977	47.03
492.321	46.94
492.665	46.7
493.009	46.58
493.353	46.39
493.697	46.17
494.041	45.97
494.385	45.7
494.729	45.4
495.073	45.23
495.417	45.07
495.76	44.95
496.104	44.76
496.448	44.62
496.791	44.34
497.135	44.24
497.479	44.06
497.822	43.99
498.165	43.66
498.509	43.44
498.852	43.14
499.196	43.08
499.539	42.87
499.882	42.7
500.225	42.65
500.568	42.58
500.911	42.37
501.254	42.24
501.597	42.13
501.94	41.95
502.283	41.92
502.626	41.74
502.969	41.61
503.312	41.56
503.654	41.42
503.997	41.24
504.34	41.08
504.682	40.89
505.025	40.8
505.367	40.73
505.71	40.47
506.052	40.29
506.395	40.11
506.737	40.1
507.079	39.92
507.421	39.86
507.764	39.61
508.106	39.56
508.448	39.35
508.79	39.18
509.132	39.13
509.474	38.94
509.816	38.74
510.158	38.51
510.499	38.44
510.841	38.28
511.183	38.21
511.525	38.03
511.866	37.98
512.208	37.86
512.549	37.69
512.891	37.61
513.232	37.59
513.574	37.51
513.915	37.39
514.256	37.32
514.598	37.23
514.939	37.1
515.28	36.9
515.621	36.87
515.962	36.66
516.303	36.67
516.644	36.64
516.985	36.57
517.326	36.47
517.667	36.29
518.008	36.24
518.349	36.31
518.69	36.36
519.03	36.17
519.371	36.08
519.712	35.94
520.052	35.89
520.393	35.75
520.733	35.65
521.074	35.57
521.414	35.41
521.754	35.35
522.095	35.22
522.435	34.96
522.775	34.9
523.115	34.94
523.455	34.71
523.795	34.76
524.135	34.58
524.475	34.55
524.815	34.42
525.155	34.27
525.495	34.18
525.835	34.08
526.175	34.08
526.514	34
526.854	33.66
527.194	33.56
527.533	33.45
527.873	33.43
528.212	33.42
528.552	33.45
528.891	33.4
529.23	33.24
529.57	33.19
529.909	33.13
530.248	32.91
530.587	32.81
530.927	32.85
531.266	32.58
531.605	32.26
531.944	32.29
532.283	32.04
532.621	32.02
532.96	31.95
533.299	31.75
533.638	31.69
533.977	31.6
534.315	31.5
534.654	31.35
534.992	31.38
535.331	31.42
535.67	31.18
536.008	31.18
536.346	30.86
536.685	30.72
537.023	30.44
537.361	30.42
537.7	30.34
538.038	30.31
538.376	30.27
538.714	30.24
539.052	30.09
539.39	30.09
539.728	30.17
540.066	30.09
540.404	30.09
540.741	29.98
541.079	29.87
541.417	29.89
541.755	29.8
542.092	29.69
542.43	29.64
542.767	29.46
543.105	29.42
543.442	29.23
543.78	29.22
544.117	29.29
544.454	29.14
544.792	29.19
545.129	29.09
545.466	29.11
545.803	29.02
546.14	29.16
546.477	29.12
546.814	29.03
547.151	29.05
547.488	29
547.825	28.82
548.162	28.95
548.499	29.05
548.835	29.09
549.172	29.13
549.509	29.21
549.845	29.09
550.182	29.04
550.518	28.98
550.855	29.04
551.191	29.15
551.528	29
551.864	29.12
552.2	29.05
552.537	29.01
552.873	29.08
553.209	29.08
553.545	29.08
553.881	29.13
554.217	29.06
554.553	28.89
554.889	29.03
555.225	29.07
555.561	29.07
555.896	29.08
556.232	29.22
556.568	29.16
556.903	29.25
557.239	29.04
557.575	29.16
557.91	28.99
558.245	29.12
558.581	29.38
558.916	29.48
559.252	29.58
559.587	29.37
559.922	29.34
560.257	29.32
560.592	29.36
560.928	29.41
561.263	29.51
561.598	29.61
561.933	29.64
562.267	29.97
562.602	30.05
562.937	30.21
563.272	30.29
563.607	30.24
563.941	30.44
564.276	30.53
564.611	30.51
564.945	30.58
565.28	30.55
565.614	30.7
565.949	30.65
566.283	30.84
566.617	30.83
566.951	30.86
567.286	30.92
567.62	30.79
567.954	30.95
568.288	31.16
568.622	31.14
568.956	31.21
569.29	31.24
569.624	31.25
569.958	31.35
570.292	31.45
570.626	31.31
570.959	31.23
571.293	31.21
571.627	31.19
571.96	31.29
572.294	31.18
572.627	31.28
572.961	31.39
573.294	31.41
573.627	31.48
573.961	31.57
574.294	31.64
574.627	31.69
574.961	31.78
575.294	31.78
575.627	31.68
575.96	31.8
576.293	31.86
576.626	31.8
576.959	31.95
577.292	31.98
577.624	32.05
577.957	32.01
578.29	32.04
578.623	32.05
578.955	32.07
579.288	32.18
579.62	32.23
579.953	32.27
580.285	32.33
580.618	32.52
580.95	32.45
581.282	32.51
581.615	32.48
581.947	32.55
582.279	32.64
582.611	32.71
582.943	32.75
583.275	32.76
583.607	32.88
583.939	33.07
584.271	33.13
584.603	33.12
584.935	33.28
585.267	33.36
585.598	33.46
585.93	33.6
586.262	33.86
586.593	33.91
586.925	34.12
587.256	34.3
587.588	34.34
587.919	34.45
588.25	34.5
588.582	34.63
588.913	34.61
589.244	34.86
589.575	34.97
589.907	35.14
590.238	35.16
590.569	35.21
590.9	35.45
591.231	35.48
591.562	35.67
591.892	35.77
592.223	35.81
592.554	35.99
592.885	36.15
593.215	36.29
593.546	36.21
593.877	36.13
594.207	36.33
594.538	36.36
594.868	36.56
595.198	36.66
595.529	36.69
595.859	36.91
596.189	37.14
596.52	37.39
596.85	37.38
597.18	37.48
597.51	37.56
597.84	37.6
598.17	37.8
598.5	38.03
598.83	38.16
599.16	38.31
599.489	38.56
599.819	38.67
600.149	38.9
600.479	39.31
600.808	39.43
601.138	39.73
601.467	39.79
601.797	40.16
602.126	40.63
602.456	40.71
602.785	40.88
603.114	41.04
603.443	41.16
603.773	41.43
604.102	41.71
604.431	41.99
604.76	42.14
605.089	42.52
605.418	42.87
605.747	43.23
606.076	43.48
606.405	43.71
606.733	43.89
607.062	44.36
607.391	44.38
607.72	44.6
608.048	44.82
608.377	45.04
608.705	45.25
609.034	45.52
609.362	45.82
609.69	46.35
610.019	46.64
610.347	46.84
610.675	47.13
611.004	47.37
611.332	47.53
611.66	47.86
611.988	48.05
612.316	48.15
612.644	48
612.972	48.19
613.3	48.58
613.627	48.85
613.955	49.16
614.283	49.68
614.611	49.91
614.938	50.13
615.266	50.17
615.593	50.58
615.921	50.94
616.248	51.44
616.576	51.84
616.903	52.23
617.23	52.49
617.558	53.04
617.885	53.13
618.212	53.42
618.539	54.03
618.866	54.22
619.193	54.66
619.52	54.86
619.847	55.05
620.174	55.41
620.501	55.83
620.828	56.14
621.155	56.54
621.481	56.4
621.808	56.52
622.135	56.71
622.461	56.76
622.788	56.83
623.114	57.25
623.441	57.33
623.767	57.51
624.093	58.04
624.42	58.46
624.746	58.59
625.072	58.76
625.398	59.28
625.725	59.21
626.051	59.67
626.377	60.33
626.703	60.35
627.029	60.54
627.354	60.62
627.68	60.74
628.006	61.02
628.332	61.15
628.658	61.35
628.983	61.52
629.309	61.5
629.634	62.19
629.96	62.35
630.285	62.63
630.611	62.44
630.936	62.87
631.262	63.04
631.587	63.03
631.912	63.29
632.237	63.42
632.562	63.31
632.887	63.11
633.213	62.63
633.538	63.42
633.863	64.16
634.187	63.79
634.512	63.23
634.837	63.18
635.162	63.17
635.487	63.04
635.811	63.45
636.136	63.58
636.461	63.87
636.785	63.97
637.11	64.57
637.434	64.47
637.758	64.52
638.083	64.82
638.407	64.7
638.731	65.26
639.056	65.45
639.38	64.96
639.704	65.85
640.028	66.13
640.352	66.32
640.676	65.67
641	66.75
641.324	67.01
641.648	66.01
641.972	65.24
642.295	65.94
642.619	65.71
642.943	65.02
643.266	65.34
643.59	65.94
643.913	65.86
644.237	65.85
644.56	65.74
644.884	66.08
645.207	66.16
645.53	66.67
645.854	66.37
646.177	66.61
646.5	66.71
646.823	66.62
647.146	66.5
647.469	67.1
647.792	67.13
648.115	67.27
648.438	67.13
648.761	69.21
649.084	69.13
649.406	69.37
649.729	68.89
650.052	68.63
650.374	68.61
650.697	68.97
651.019	68.92
651.342	69.02
651.664	68.97
651.987	69.08
652.309	69.24
652.631	69.45
652.953	69.48
653.276	69.47
653.598	69.56
653.92	69.55
654.242	69.71
654.564	69.55
654.886	69.55
655.208	69.55
655.53	69.35
655.851	69.32
656.173	69.12
656.495	69.27
656.816	68.61
