Data from T2_Reflection__82__01-22-40-870.txt Node

Date: Fri Jun 04 01:22:40 CEST 2021
User: mabdelazizm
Spectrometer: FLMS18565
Trigger mode: 0
Integration Time (sec): 2.000000E0
Scans to average: 1
Electric dark correction enabled: true
Nonlinearity correction enabled: false
Boxcar width: 12
XAxis mode: Wavelengths
Number of Pixels in Spectrum: 2048
>>>>>Begin Spectral Data<<<<<
179.071	-455.61
179.452	-172.15
179.833	-20.76
180.214	-850
180.595	-13.52
180.977	-23.65
181.358	-1355.1
181.739	351.52
182.12	137.76
182.501	114.81
182.882	109.12
183.262	60.36
183.643	54.45
184.024	47.59
184.405	28.65
184.786	26.5
185.166	34.18
185.547	26.52
185.927	26.23
186.308	25.77
186.689	35.49
187.069	29.57
187.449	32.06
187.83	26.79
188.21	22.01
188.59	20.85
188.971	25.32
189.351	34.51
189.731	31.81
190.111	35.84
190.491	37.02
190.871	33.51
191.251	37.86
191.631	34.2
192.011	27.89
192.391	25.64
192.771	30.59
193.151	28.85
193.531	29.96
193.91	29.42
194.29	29.72
194.67	32.8
195.049	33.17
195.429	31.49
195.808	32.93
196.188	29.9
196.567	26.43
196.946	28.59
197.326	28.3
197.705	28.57
198.084	26.9
198.464	23.39
198.843	19.21
199.222	21.67
199.601	19.57
199.98	20.99
200.359	21.46
200.738	23.56
201.117	23.91
201.496	25.3
201.875	23.4
202.254	21.13
202.632	19.33
203.011	18.65
203.39	17.42
203.768	14.67
204.147	13.06
204.525	12.69
204.904	13.35
205.282	10.93
205.661	9.81
206.039	13.35
206.418	11.85
206.796	12.75
207.174	15.78
207.552	18.68
207.931	18.69
208.309	20.18
208.687	19.33
209.065	18.43
209.443	17.59
209.821	16.81
210.199	13.65
210.577	14.98
210.954	15.29
211.332	17.47
211.71	18.48
212.088	19.73
212.465	19.4
212.843	20.67
213.221	21.77
213.598	22.64
213.976	21.64
214.353	20.8
214.731	21.64
215.108	21.95
215.485	21.3
215.863	19.64
216.24	19.06
216.617	19.21
216.994	19.01
217.371	19.86
217.749	20.75
218.126	18.8
218.503	17.11
218.88	16.84
219.256	16.65
219.633	17.13
220.01	16.26
220.387	17.23
220.764	16.67
221.14	16.38
221.517	15.78
221.894	15.11
222.27	14.44
222.647	12.81
223.023	11.77
223.4	11.54
223.776	10.67
224.153	10.09
224.529	9.59
224.905	9.06
225.282	9.25
225.658	8.97
226.034	7.82
226.41	7.78
226.786	7.57
227.162	7.07
227.538	6.41
227.914	6.49
228.29	5.7
228.666	5.53
229.042	5.73
229.418	5.84
229.793	5.47
230.169	5.32
230.545	5.01
230.92	4.96
231.296	5.03
231.672	4.89
232.047	5.24
232.422	5.14
232.798	5.23
233.173	5.49
233.549	5.65
233.924	5.69
234.299	5.91
234.674	6.07
235.05	6.03
235.425	6.09
235.8	5.7
236.175	5.66
236.55	5.41
236.925	5.66
237.3	5.53
237.675	5.67
238.049	5.45
238.424	5.43
238.799	5.25
239.174	5.2
239.548	5.17
239.923	5.01
240.297	5.05
240.672	4.97
241.046	5.01
241.421	4.91
241.795	4.83
242.17	4.81
242.544	4.59
242.918	4.59
243.293	4.64
243.667	4.47
244.041	4.3
244.415	4.23
244.789	4.13
245.163	4.16
245.537	4.17
245.911	4.24
246.285	4.24
246.659	4.21
247.033	4.16
247.406	4.28
247.78	4.18
248.154	4.15
248.528	4.09
248.901	4.04
249.275	4.11
249.648	4.1
250.022	4.06
250.395	3.99
250.769	3.99
251.142	4.11
251.515	4.08
251.888	4.18
252.262	4.18
252.635	4.19
253.008	4.21
253.381	4.19
253.754	4.12
254.127	4.22
254.5	4.16
254.873	4.02
255.246	3.98
255.619	3.93
255.992	3.95
256.364	3.93
256.737	3.89
257.11	3.85
257.483	3.8
257.855	3.83
258.228	3.84
258.6	3.89
258.973	3.85
259.345	3.78
259.718	3.81
260.09	3.77
260.462	3.62
260.834	3.6
261.207	3.58
261.579	3.51
261.951	3.44
262.323	3.37
262.695	3.33
263.067	3.39
263.439	3.31
263.811	3.39
264.183	3.41
264.555	3.37
264.927	3.34
265.298	3.36
265.67	3.32
266.042	3.3
266.413	3.2
266.785	3.23
267.156	3.21
267.528	3.12
267.899	3.05
268.271	3.03
268.642	3.04
269.013	3.02
269.385	2.98
269.756	3.01
270.127	3.01
270.498	2.99
270.87	2.92
271.241	2.93
271.612	2.87
271.983	2.89
272.354	2.85
272.724	2.78
273.095	2.77
273.466	2.77
273.837	2.74
274.208	2.75
274.578	2.7
274.949	2.67
275.32	2.65
275.69	2.67
276.061	2.69
276.431	2.67
276.802	2.81
277.172	2.84
277.542	2.78
277.913	2.81
278.283	2.81
278.653	2.82
279.023	2.84
279.394	2.77
279.764	2.83
280.134	2.89
280.504	2.87
280.874	2.93
281.244	2.9
281.614	2.97
281.983	2.99
282.353	2.96
282.723	2.97
283.093	2.97
283.462	3.01
283.832	3.03
284.202	3.07
284.571	3.02
284.941	3.06
285.31	3.08
285.68	3.07
286.049	3.01
286.418	2.92
286.788	3.01
287.157	3.03
287.526	2.98
287.895	2.95
288.264	2.89
288.633	2.87
289.002	2.76
289.371	2.69
289.74	2.63
290.109	2.63
290.478	2.64
290.847	2.61
291.216	2.64
291.585	2.58
291.953	2.55
292.322	2.62
292.691	2.5
293.059	2.48
293.428	2.46
293.796	2.51
294.165	2.48
294.533	2.41
294.901	2.43
295.27	2.42
295.638	2.5
296.006	2.42
296.374	2.38
296.743	2.38
297.111	2.48
297.479	2.48
297.847	2.46
298.215	2.48
298.583	2.44
298.95	2.44
299.318	2.4
299.686	2.3
300.054	2.22
300.422	2.11
300.789	2.14
301.157	2.14
301.525	2.07
301.892	2.13
302.26	2.14
302.627	2.14
302.994	2.07
303.362	2.12
303.729	2.14
304.097	2.11
304.464	2.13
304.831	2.02
305.198	1.99
305.565	1.98
305.932	1.95
306.299	1.86
306.666	1.93
307.033	1.95
307.4	1.95
307.767	1.93
308.134	1.9
308.501	1.89
308.867	1.94
309.234	1.97
309.601	2.05
309.967	2
310.334	1.97
310.701	1.97
311.067	1.92
311.433	1.95
311.8	1.98
312.166	1.98
312.533	1.88
312.899	1.88
313.265	1.81
313.631	1.72
313.997	1.72
314.363	1.67
314.729	1.62
315.096	1.65
315.461	1.66
315.827	1.57
316.193	1.58
316.559	1.51
316.925	1.62
317.291	1.66
317.656	1.66
318.022	1.69
318.388	1.6
318.753	1.61
319.119	1.69
319.484	1.74
319.85	1.72
320.215	1.79
320.581	1.76
320.946	1.72
321.311	1.7
321.676	1.72
322.042	1.66
322.407	1.66
322.772	1.64
323.137	1.67
323.502	1.73
323.867	1.81
324.232	1.77
324.597	1.78
324.962	1.85
325.327	1.87
325.691	2.02
326.056	1.93
326.421	1.84
326.785	1.8
327.15	1.78
327.514	1.81
327.879	1.79
328.243	1.73
328.608	1.73
328.972	1.74
329.337	1.59
329.701	1.54
330.065	1.55
330.429	1.58
330.794	1.57
331.158	1.67
331.522	1.78
331.886	1.82
332.25	1.84
332.614	1.77
332.978	1.8
333.342	1.86
333.705	1.84
334.069	1.8
334.433	1.78
334.797	1.65
335.16	1.67
335.524	1.72
335.887	1.63
336.251	1.63
336.614	1.66
336.978	1.63
337.341	1.61
337.705	1.56
338.068	1.59
338.431	1.66
338.794	1.6
339.158	1.56
339.521	1.57
339.884	1.56
340.247	1.47
340.61	1.37
340.973	1.34
341.336	1.35
341.699	1.4
342.062	1.31
342.424	1.21
342.787	1.18
343.15	1.1
343.512	1.14
343.875	1.12
344.238	1.13
344.6	1.07
344.963	1.25
345.325	1.29
345.688	1.29
346.05	1.29
346.412	1.31
346.775	1.35
347.137	1.37
347.499	1.41
347.861	1.49
348.223	1.54
348.585	1.57
348.947	1.56
349.309	1.52
349.671	1.49
350.033	1.55
350.395	1.46
350.757	1.52
351.118	1.51
351.48	1.57
351.842	1.58
352.203	1.65
352.565	1.56
352.927	1.57
353.288	1.62
353.65	1.65
354.011	1.54
354.372	1.48
354.734	1.49
355.095	1.47
355.456	1.49
355.817	1.46
356.179	1.32
356.54	1.25
356.901	1.25
357.262	1.19
357.623	1.15
357.984	1.27
358.345	1.31
358.705	1.27
359.066	1.18
359.427	1.22
359.788	1.16
360.148	1.2
360.509	1.19
360.87	1.23
361.23	1.26
361.591	1.31
361.951	1.44
362.312	1.48
362.672	1.53
363.032	1.6
363.393	1.58
363.753	1.54
364.113	1.64
364.473	1.62
364.833	1.61
365.193	1.68
365.553	1.72
365.913	1.72
366.273	1.82
366.633	1.78
366.993	1.7
367.353	1.69
367.713	1.73
368.072	1.85
368.432	1.79
368.792	1.84
369.151	1.82
369.511	1.82
369.87	1.79
370.23	1.73
370.589	1.69
370.949	1.53
371.308	1.48
371.667	1.5
372.027	1.49
372.386	1.6
372.745	1.69
373.104	1.57
373.463	1.57
373.822	1.6
374.181	1.61
374.54	1.58
374.899	1.63
375.258	1.56
375.617	1.68
375.975	1.77
376.334	1.81
376.693	1.92
377.052	1.86
377.41	1.96
377.769	1.95
378.127	2.03
378.486	2.04
378.844	2.08
379.202	2.1
379.561	2.09
379.919	2.15
380.277	2.18
380.636	2.22
380.994	2.28
381.352	2.27
381.71	2.25
382.068	2.36
382.426	2.37
382.784	2.54
383.142	2.65
383.5	2.78
383.857	2.92
384.215	2.95
384.573	2.99
384.931	3.1
385.288	3.23
385.646	3.34
386.003	3.53
386.361	3.62
386.718	3.67
387.076	3.79
387.433	3.91
387.791	3.96
388.148	4.17
388.505	4.35
388.862	4.53
389.22	4.67
389.577	4.76
389.934	4.91
390.291	5.21
390.648	5.5
391.005	5.72
391.362	6.06
391.718	6.2
392.075	6.42
392.432	6.66
392.789	6.86
393.145	7.15
393.502	7.42
393.859	7.61
394.215	7.85
394.572	8.13
394.928	8.39
395.285	8.63
395.641	8.99
395.997	9.33
396.354	9.75
396.71	10.23
397.066	10.56
397.422	11.07
397.778	11.55
398.134	12.02
398.491	12.55
398.846	13.01
399.202	13.51
399.558	13.95
399.914	14.42
400.27	14.84
400.626	15.28
400.981	15.74
401.337	16.37
401.693	16.92
402.048	17.58
402.404	18.19
402.759	18.84
403.115	19.38
403.47	20.03
403.826	20.67
404.181	21.36
404.536	22.07
404.892	22.61
405.247	23.21
405.602	23.88
405.957	24.55
406.312	25.16
406.667	25.71
407.022	26.44
407.377	27.15
407.732	28
408.087	28.51
408.442	29.21
408.796	29.86
409.151	30.61
409.506	31.31
409.86	32.12
410.215	32.91
410.57	33.56
410.924	34.08
411.279	34.8
411.633	35.36
411.987	36.14
412.342	36.8
412.696	37.46
413.05	38.21
413.404	38.94
413.758	39.72
414.113	40.42
414.467	41.11
414.821	41.78
415.175	42.44
415.529	43.16
415.882	43.62
416.236	44.06
416.59	44.4
416.944	45.01
417.298	45.63
417.651	45.96
418.005	46.41
418.358	47.05
418.712	47.48
419.065	47.89
419.419	48.27
419.772	48.77
420.126	49.1
420.479	49.54
420.832	49.87
421.185	50.15
421.539	50.54
421.892	50.75
422.245	51.08
422.598	51.38
422.951	51.79
423.304	51.88
423.657	52.16
424.01	52.51
424.363	52.73
424.715	53.11
425.068	53.5
425.421	53.99
425.773	54.33
426.126	54.48
426.479	55.03
426.831	55.27
427.184	55.46
427.536	55.76
427.889	55.94
428.241	56.21
428.593	56.49
428.945	56.83
429.298	57.21
429.65	57.45
430.002	57.65
430.354	57.89
430.706	58.17
431.058	58.34
431.41	58.69
431.762	58.82
432.114	59.04
432.466	59.29
432.817	59.58
433.169	59.77
433.521	59.92
433.872	60
434.224	60.1
434.576	60.21
434.927	60.4
435.279	60.48
435.63	60.76
435.981	60.88
436.333	61.01
436.684	61.14
437.035	61.14
437.387	61.12
437.738	61.08
438.089	61
438.44	61.16
438.791	61.31
439.142	61.41
439.493	61.56
439.844	61.49
440.195	61.43
440.545	61.49
440.896	61.79
441.247	61.81
441.598	61.63
441.948	61.75
442.299	61.8
442.649	61.98
443	62.08
443.35	62.13
443.701	62.26
444.051	62.33
444.401	62.32
444.752	62.38
445.102	62.37
445.452	62.3
445.802	62.43
446.152	62.59
446.502	62.73
446.852	62.81
447.202	62.82
447.552	62.99
447.902	62.93
448.252	62.98
448.602	63.6
448.952	63.6
449.301	63.66
449.651	63.68
450.001	63.67
450.35	63.77
450.7	63.67
451.049	63.85
451.399	63.9
451.748	63.73
452.097	63.84
452.447	63.55
452.796	63.61
453.145	63.57
453.494	63.63
453.843	63.34
454.193	63.46
454.542	63.51
454.891	63.44
455.239	63.32
455.588	63.19
455.937	63.19
456.286	62.9
456.635	62.95
456.984	62.83
457.332	62.32
457.681	62.43
458.03	62.28
458.378	62.09
458.727	62.12
459.075	62.1
459.423	62.34
459.772	62.06
460.12	61.91
460.468	61.9
460.817	61.75
461.165	61.72
461.513	61.51
461.861	61.5
462.209	61.26
462.557	61.49
462.905	61.38
463.253	61.26
463.601	61.16
463.949	61.17
464.297	61.01
464.644	60.84
464.992	60.91
465.34	60.87
465.687	60.91
466.035	60.8
466.383	60.67
466.73	60.77
467.078	60.62
467.425	60.48
467.772	60.42
468.12	60.26
468.467	60.28
468.814	60.42
469.161	60.49
469.508	60.37
469.856	60.46
470.203	60.4
470.55	60.41
470.897	60.36
471.243	60.32
471.59	60.04
471.937	59.96
472.284	60.05
472.631	59.96
472.977	60.03
473.324	60.05
473.671	59.87
474.017	59.75
474.364	59.61
474.71	59.32
475.057	59.2
475.403	58.93
475.749	58.82
476.096	58.66
476.442	58.53
476.788	58.34
477.134	58.13
477.48	57.86
477.826	57.59
478.172	57.46
478.518	57.38
478.864	57.27
479.21	56.94
479.556	56.77
479.902	56.51
480.248	56.49
480.593	56.36
480.939	56.1
481.285	56.04
481.63	55.98
481.976	55.77
482.321	55.7
482.667	55.54
483.012	55.46
483.357	55.42
483.703	55.28
484.048	55.25
484.393	55.13
484.738	55.17
485.084	54.94
485.429	54.81
485.774	54.75
486.119	54.54
486.464	54.49
486.808	54.25
487.153	53.92
487.498	53.75
487.843	53.69
488.188	53.53
488.532	53.51
488.877	53.25
489.222	53.12
489.566	53.01
489.911	52.75
490.255	52.59
490.6	52.47
490.944	52.24
491.288	52.08
491.633	51.88
491.977	51.57
492.321	51.32
492.665	51.11
493.009	50.91
493.353	50.54
493.697	50.47
494.041	50.34
494.385	50.14
494.729	50.05
495.073	49.89
495.417	49.88
495.76	49.73
496.104	49.46
496.448	49.28
496.791	48.98
497.135	48.58
497.479	48.46
497.822	48.36
498.165	48.1
498.509	48.01
498.852	47.73
499.196	47.5
499.539	47.38
499.882	47.17
500.225	46.91
500.568	46.86
500.911	46.81
501.254	46.61
501.597	46.52
501.94	46.49
502.283	46.35
502.626	46.16
502.969	46.03
503.312	45.8
503.654	45.63
503.997	45.35
504.34	45.38
504.682	45.25
505.025	45.23
505.367	45.31
505.71	45.13
506.052	45.03
506.395	44.76
506.737	44.73
507.079	44.46
507.421	44.33
507.764	44.22
508.106	44.14
508.448	44.01
508.79	43.89
509.132	43.87
509.474	43.77
509.816	43.67
510.158	43.53
510.499	43.35
510.841	43.18
511.183	42.97
511.525	42.79
511.866	42.77
512.208	42.55
512.549	42.48
512.891	42.32
513.232	42.25
513.574	41.99
513.915	41.77
514.256	41.83
514.598	41.76
514.939	41.54
515.28	41.37
515.621	41.24
515.962	41.18
516.303	41.12
516.644	40.97
516.985	40.84
517.326	40.73
517.667	40.47
518.008	40.25
518.349	40.12
518.69	40.08
519.03	40.03
519.371	39.9
519.712	39.77
520.052	39.74
520.393	39.61
520.733	39.54
521.074	39.38
521.414	39.18
521.754	39.04
522.095	38.95
522.435	38.85
522.775	38.63
523.115	38.47
523.455	38.51
523.795	38.38
524.135	38.4
524.475	38.2
524.815	38.1
525.155	37.96
525.495	37.95
525.835	37.9
526.175	37.8
526.514	37.69
526.854	37.48
527.194	37.35
527.533	37.18
527.873	37.15
528.212	37.15
528.552	37.05
528.891	36.95
529.23	36.95
529.57	36.9
529.909	36.81
530.248	36.8
530.587	36.64
530.927	36.53
531.266	36.56
531.605	36.46
531.944	36.49
532.283	36.39
532.621	36.26
532.96	36.32
533.299	36.19
533.638	36.16
533.977	36.06
534.315	35.87
534.654	35.8
534.992	35.76
535.331	35.83
535.67	35.7
536.008	35.57
536.346	35.28
536.685	35.34
537.023	35.18
537.361	35.07
537.7	34.76
538.038	34.79
538.376	34.81
538.714	34.81
539.052	34.92
539.39	34.82
539.728	34.69
540.066	34.6
540.404	34.36
540.741	34.19
541.079	34.08
541.417	33.99
541.755	33.93
542.092	33.76
542.43	33.67
542.767	33.65
543.105	33.6
543.442	33.39
543.78	33.25
544.117	33.08
544.454	32.94
544.792	33.03
545.129	32.79
545.466	32.67
545.803	32.68
546.14	32.9
546.477	32.69
546.814	32.69
547.151	32.56
547.488	32.39
547.825	32.42
548.162	32.47
548.499	32.4
548.835	32.46
549.172	32.52
549.509	32.54
549.845	32.29
550.182	32.14
550.518	32.09
550.855	32.14
551.191	32.15
551.528	32.16
551.864	32.16
552.2	32.16
552.537	32.17
552.873	32.22
553.209	32.17
553.545	32.16
553.881	32.36
554.217	32.29
554.553	32.15
554.889	32.22
555.225	32.1
555.561	32.17
555.896	32.11
556.232	32.05
556.568	32.07
556.903	32.2
557.239	32.21
557.575	32.27
557.91	32.26
558.245	32.45
558.581	32.72
558.916	32.74
559.252	32.77
559.587	32.7
559.922	32.76
560.257	32.95
560.592	33.01
560.928	33.06
561.263	33.16
561.598	33.47
561.933	33.69
562.267	33.84
562.602	33.82
562.937	33.94
563.272	34.12
563.607	34.15
563.941	34.16
564.276	34.19
564.611	34.39
564.945	34.39
565.28	34.36
565.614	34.32
565.949	34.41
566.283	34.64
566.617	34.66
566.951	34.7
567.286	34.84
567.62	34.73
567.954	34.78
568.288	34.76
568.622	34.74
568.956	34.85
569.29	34.96
569.624	34.92
569.958	34.85
570.292	34.78
570.626	34.66
570.959	34.77
571.293	34.77
571.627	34.85
571.96	34.99
572.294	34.97
572.627	35.05
572.961	35.15
573.294	35.19
573.627	35.35
573.961	35.39
574.294	35.37
574.627	35.29
574.961	35.3
575.294	35.37
575.627	35.28
575.96	35.42
576.293	35.45
576.626	35.53
576.959	35.61
577.292	35.73
577.624	35.78
577.957	35.89
578.29	35.91
578.623	36
578.955	36.14
579.288	36.19
579.62	36.33
579.953	36.31
580.285	36.34
580.618	36.55
580.95	36.57
581.282	36.54
581.615	36.52
581.947	36.44
582.279	36.62
582.611	36.7
582.943	36.84
583.275	36.91
583.607	36.91
583.939	37.01
584.271	37.02
584.603	37.17
584.935	37.23
585.267	37.23
585.598	37.08
585.93	37.14
586.262	37.26
586.593	37.38
586.925	37.49
587.256	37.65
587.588	37.72
587.919	37.72
588.25	37.82
588.582	37.97
588.913	37.87
589.244	38
589.575	38.21
589.907	38.44
590.238	38.68
590.569	38.76
590.9	38.95
591.231	39.07
591.562	39.26
591.892	39.41
592.223	39.72
592.554	39.84
592.885	39.98
593.215	40.14
593.546	40.44
593.877	40.6
594.207	40.75
594.538	40.94
594.868	41.19
595.198	41.25
595.529	41.29
595.859	41.38
596.189	41.55
596.52	41.68
596.85	41.73
597.18	42.02
597.51	42.13
597.84	42.14
598.17	42.35
598.5	42.42
598.83	42.62
599.16	42.91
599.489	43.01
599.819	43.35
600.149	43.52
600.479	43.76
600.808	44.06
601.138	44.23
601.467	44.44
601.797	44.53
602.126	44.97
602.456	45.33
602.785	45.49
603.114	45.6
603.443	45.88
603.773	46.06
604.102	46.51
604.431	46.87
604.76	47.22
605.089	47.55
605.418	47.85
605.747	48.2
606.076	48.52
606.405	48.72
606.733	49
607.062	49.19
607.391	49.18
607.72	49.42
608.048	49.61
608.377	49.91
608.705	50.25
609.034	50.56
609.362	51.06
609.69	51.33
610.019	51.72
610.347	51.86
610.675	51.89
611.004	52.23
611.332	52.63
611.66	53.1
611.988	53.47
612.316	53.43
612.644	53.47
612.972	53.58
613.3	53.6
613.627	53.63
613.955	53.98
614.283	54.14
614.611	54.17
614.938	54.47
615.266	54.79
615.593	55.25
615.921	55.55
616.248	55.62
616.576	56.07
616.903	56.2
617.23	56.35
617.558	56.48
617.885	57
618.212	57.3
618.539	57.67
618.866	58.14
619.193	58.27
619.52	58.42
619.847	58.34
620.174	58.61
620.501	59.01
620.828	59.27
621.155	59.57
621.481	59.82
621.808	60.38
622.135	60.2
622.461	60.56
622.788	60.88
623.114	61.04
623.441	61.17
623.767	61.09
624.093	61.56
624.42	62.19
624.746	62.46
625.072	62.74
625.398	62.93
625.725	63.08
626.051	63.01
626.377	63.07
626.703	63.24
627.029	63.35
627.354	63.23
627.68	63.48
628.006	63.58
628.332	63.81
628.658	64.15
628.983	64.33
629.309	64.48
629.634	64.84
629.96	64.93
630.285	65.52
630.611	65.71
630.936	66.09
631.262	66.06
631.587	66.19
631.912	66.57
632.237	66.71
632.562	66.6
632.887	66.26
633.213	66.4
633.538	67.54
633.863	67.96
634.187	67.91
634.512	67.76
634.837	67.65
635.162	67.67
635.487	67.89
635.811	67.69
636.136	67.95
636.461	67.72
636.785	67.76
637.11	68.56
637.434	68.57
637.758	68.81
638.083	69
638.407	68.8
638.731	68.43
639.056	68.35
639.38	68.21
639.704	68.42
640.028	68.8
640.352	68.4
640.676	68.05
641	68.7
641.324	68.25
641.648	66.84
641.972	67.02
642.295	67.68
642.619	67.62
642.943	67.26
643.266	67.32
643.59	67.96
643.913	67.88
644.237	68.28
644.56	68.1
644.884	68.12
645.207	67.52
645.53	67.9
645.854	67.67
646.177	67.37
646.5	67.32
646.823	68.08
647.146	68.53
647.469	68.93
647.792	68.98
648.115	68.65
648.438	69
648.761	71.53
649.084	72.66
649.406	72.99
649.729	72.55
650.052	72.17
650.374	72.35
650.697	72.63
651.019	72.84
651.342	72.95
651.664	72.85
651.987	72.83
652.309	73.03
652.631	73.2
652.953	73.41
653.276	73.3
653.598	73.34
653.92	73.59
654.242	73.76
654.564	73.94
654.886	73.89
655.208	73.67
655.53	73.53
655.851	73.53
656.173	73.53
656.495	73.78
