Data from T2_Reflection__91__01-28-18-859.txt Node

Date: Fri Jun 04 01:28:18 CEST 2021
User: mabdelazizm
Spectrometer: FLMS18565
Trigger mode: 0
Integration Time (sec): 2.000000E0
Scans to average: 1
Electric dark correction enabled: true
Nonlinearity correction enabled: false
Boxcar width: 12
XAxis mode: Wavelengths
Number of Pixels in Spectrum: 2048
>>>>>Begin Spectral Data<<<<<
179.071	-18.39
179.452	76.37
179.833	197.41
180.214	3050
180.595	194.62
180.977	245.81
181.358	1357.14
181.739	-457.58
182.12	-2.37
182.501	10.71
182.882	32.79
183.262	79.88
183.643	74.17
184.024	49.92
184.405	45
184.786	49.95
185.166	57.78
185.547	56.14
185.927	46.25
186.308	39.69
186.689	46.04
187.069	37.35
187.449	38.67
187.83	32.65
188.21	33.62
188.59	39.14
188.971	46.66
189.351	50.85
189.731	49.79
190.111	46.33
190.491	44.1
190.871	42.41
191.251	44.53
191.631	38.86
192.011	35.91
192.391	34.58
192.771	32.75
193.151	30.09
193.531	33.75
193.91	34.71
194.29	32.29
194.67	32.96
195.049	30.81
195.429	30.07
195.808	34.18
196.188	29.44
196.567	28.48
196.946	31.1
197.326	30.26
197.705	28.64
198.084	25.4
198.464	21.47
198.843	20.18
199.222	23.25
199.601	25.57
199.98	27.18
200.359	26.36
200.738	26.69
201.117	27.34
201.496	27
201.875	26.66
202.254	22.25
202.632	22.8
203.011	23.77
203.39	22.74
203.768	22.73
204.147	20.96
204.525	21.65
204.904	19.81
205.282	17.47
205.661	18.89
206.039	21.2
206.418	19
206.796	19.89
207.174	22.11
207.552	23.8
207.931	22.04
208.309	22.29
208.687	20.22
209.065	19.47
209.443	18.83
209.821	19.45
210.199	18.89
210.577	18.97
210.954	18.74
211.332	18.5
211.71	19.77
212.088	19.38
212.465	18.94
212.843	19.12
213.221	17.41
213.598	16.91
213.976	15.23
214.353	16.88
214.731	15.35
215.108	15.87
215.485	13.89
215.863	13.76
216.24	13.54
216.617	13.7
216.994	14.51
217.371	15.6
217.749	14.9
218.126	13.33
218.503	12.27
218.88	11.98
219.256	11.96
219.633	10.8
220.01	9.77
220.387	9.91
220.764	9.2
221.14	9.38
221.517	9.47
221.894	8.24
222.27	7.94
222.647	8.79
223.023	9.19
223.4	9.94
223.776	8.98
224.153	9.53
224.529	8.26
224.905	8.02
225.282	8.15
225.658	7.74
226.034	6.69
226.41	5.67
226.786	5.39
227.162	5.46
227.538	5.48
227.914	5.26
228.29	4.86
228.666	4.35
229.042	3.93
229.418	4.37
229.793	4.17
230.169	4.02
230.545	3.57
230.92	3.38
231.296	3.33
231.672	3.13
232.047	2.95
232.422	2.99
232.798	2.5
233.173	2.46
233.549	2.53
233.924	2.81
234.299	2.92
234.674	2.77
235.05	2.87
235.425	2.85
235.8	2.7
236.175	2.76
236.55	2.59
236.925	2.69
237.3	2.52
237.675	2.49
238.049	2.55
238.424	2.64
238.799	2.43
239.174	2.48
239.548	2.6
239.923	2.58
240.297	2.54
240.672	2.45
241.046	2.5
241.421	2.47
241.795	2.33
242.17	2.38
242.544	2.28
242.918	2.22
243.293	2.09
243.667	2.09
244.041	2.09
244.415	1.99
244.789	2.07
245.163	2.19
245.537	2.17
245.911	2.26
246.285	2.23
246.659	2.27
247.033	2.23
247.406	2.28
247.78	2.26
248.154	2.2
248.528	2.23
248.901	2.18
249.275	2.25
249.648	2.29
250.022	2.29
250.395	2.14
250.769	2.2
251.142	2.19
251.515	2.18
251.888	2.27
252.262	2.25
252.635	2.27
253.008	2.24
253.381	2.18
253.754	2.18
254.127	2.14
254.5	2.07
254.873	2.01
255.246	1.95
255.619	1.93
255.992	1.97
256.364	1.97
256.737	1.89
257.11	1.9
257.483	1.89
257.855	1.87
258.228	1.83
258.6	1.85
258.973	1.85
259.345	1.88
259.718	1.92
260.09	1.86
260.462	1.85
260.834	1.8
261.207	1.75
261.579	1.76
261.951	1.77
262.323	1.68
262.695	1.7
263.067	1.75
263.439	1.74
263.811	1.78
264.183	1.72
264.555	1.76
264.927	1.8
265.298	1.79
265.67	1.77
266.042	1.71
266.413	1.66
266.785	1.7
267.156	1.7
267.528	1.67
267.899	1.57
268.271	1.53
268.642	1.52
269.013	1.66
269.385	1.61
269.756	1.55
270.127	1.61
270.498	1.57
270.87	1.48
271.241	1.42
271.612	1.39
271.983	1.35
272.354	1.27
272.724	1.19
273.095	1.2
273.466	1.26
273.837	1.18
274.208	1.16
274.578	1.07
274.949	1.03
275.32	1.07
275.69	1.09
276.061	1.06
276.431	1.03
276.802	1.11
277.172	1.16
277.542	1.05
277.913	1.04
278.283	0.96
278.653	0.99
279.023	1.02
279.394	0.94
279.764	0.99
280.134	1.03
280.504	1.06
280.874	1.13
281.244	1.15
281.614	1.2
281.983	1.27
282.353	1.2
282.723	1.17
283.093	1.2
283.462	1.18
283.832	1.23
284.202	1.26
284.571	1.21
284.941	1.23
285.31	1.29
285.68	1.27
286.049	1.22
286.418	1.15
286.788	1.26
287.157	1.3
287.526	1.23
287.895	1.2
288.264	1.21
288.633	1.23
289.002	1.21
289.371	1.2
289.74	1.19
290.109	1.18
290.478	1.16
290.847	1.12
291.216	1.1
291.585	1.1
291.953	1.09
292.322	1.1
292.691	1.07
293.059	1.08
293.428	1.07
293.796	1.11
294.165	1.08
294.533	1.03
294.901	1.08
295.27	1.04
295.638	1.09
296.006	1.03
296.374	0.99
296.743	0.99
297.111	1.04
297.479	1.03
297.847	0.99
298.215	0.94
298.583	0.88
298.95	0.84
299.318	0.86
299.686	0.85
300.054	0.86
300.422	0.86
300.789	0.87
301.157	0.9
301.525	0.8
301.892	0.83
302.26	0.86
302.627	0.86
302.994	0.79
303.362	0.79
303.729	0.86
304.097	0.81
304.464	0.86
304.831	0.84
305.198	0.86
305.565	0.78
305.932	0.77
306.299	0.72
306.666	0.76
307.033	0.79
307.4	0.85
307.767	0.88
308.134	0.88
308.501	0.87
308.867	0.8
309.234	0.81
309.601	0.74
309.967	0.72
310.334	0.66
310.701	0.69
311.067	0.63
311.433	0.67
311.8	0.73
312.166	0.75
312.533	0.74
312.899	0.78
313.265	0.75
313.631	0.66
313.997	0.57
314.363	0.48
314.729	0.49
315.096	0.57
315.461	0.56
315.827	0.48
316.193	0.43
316.559	0.35
316.925	0.41
317.291	0.46
317.656	0.49
318.022	0.6
318.388	0.52
318.753	0.56
319.119	0.61
319.484	0.65
319.85	0.69
320.215	0.75
320.581	0.71
320.946	0.66
321.311	0.67
321.676	0.69
322.042	0.54
322.407	0.5
322.772	0.52
323.137	0.62
323.502	0.65
323.867	0.66
324.232	0.59
324.597	0.64
324.962	0.7
325.327	0.74
325.691	0.85
326.056	0.77
326.421	0.71
326.785	0.68
327.15	0.62
327.514	0.68
327.879	0.67
328.243	0.65
328.608	0.7
328.972	0.69
329.337	0.61
329.701	0.6
330.065	0.64
330.429	0.64
330.794	0.65
331.158	0.78
331.522	0.86
331.886	0.88
332.25	0.8
332.614	0.81
332.978	0.81
333.342	0.89
333.705	0.9
334.069	0.93
334.433	0.89
334.797	0.76
335.16	0.8
335.524	0.81
335.887	0.75
336.251	0.67
336.614	0.7
336.978	0.68
337.341	0.6
337.705	0.53
338.068	0.61
338.431	0.64
338.794	0.6
339.158	0.55
339.521	0.51
339.884	0.45
340.247	0.38
340.61	0.34
340.973	0.31
341.336	0.38
341.699	0.38
342.062	0.33
342.424	0.18
342.787	0.11
343.15	0
343.512	0
343.875	0.14
344.238	0.07
344.6	0.1
344.963	0.2
345.325	0.24
345.688	0.28
346.05	0.26
346.412	0.36
346.775	0.43
347.137	0.37
347.499	0.4
347.861	0.47
348.223	0.49
348.585	0.54
348.947	0.51
349.309	0.5
349.671	0.47
350.033	0.57
350.395	0.51
350.757	0.6
351.118	0.67
351.48	0.77
351.842	0.75
352.203	0.8
352.565	0.75
352.927	0.66
353.288	0.71
353.65	0.7
354.011	0.51
354.372	0.58
354.734	0.51
355.095	0.58
355.456	0.6
355.817	0.58
356.179	0.54
356.54	0.47
356.901	0.38
357.262	0.37
357.623	0.33
357.984	0.41
358.345	0.42
358.705	0.46
359.066	0.36
359.427	0.43
359.788	0.37
360.148	0.42
360.509	0.34
360.87	0.37
361.23	0.39
361.591	0.48
361.951	0.56
362.312	0.6
362.672	0.63
363.032	0.73
363.393	0.62
363.753	0.59
364.113	0.55
364.473	0.56
364.833	0.46
365.193	0.46
365.553	0.47
365.913	0.52
366.273	0.57
366.633	0.61
366.993	0.61
367.353	0.51
367.713	0.49
368.072	0.53
368.432	0.41
368.792	0.45
369.151	0.41
369.511	0.5
369.87	0.44
370.23	0.43
370.589	0.42
370.949	0.35
371.308	0.31
371.667	0.27
372.027	0.29
372.386	0.39
372.745	0.38
373.104	0.34
373.463	0.33
373.822	0.34
374.181	0.36
374.54	0.35
374.899	0.32
375.258	0.29
375.617	0.36
375.975	0.41
376.334	0.52
376.693	0.65
377.052	0.63
377.41	0.76
377.769	0.73
378.127	0.78
378.486	0.83
378.844	1.03
379.202	1.02
379.561	1
379.919	0.98
380.277	1.03
380.636	1.08
380.994	1.13
381.352	1.15
381.71	1.24
382.068	1.31
382.426	1.27
382.784	1.39
383.142	1.39
383.5	1.49
383.857	1.61
384.215	1.64
384.573	1.64
384.931	1.64
385.288	1.64
385.646	1.66
386.003	1.77
386.361	1.81
386.718	1.83
387.076	1.88
387.433	1.8
387.791	1.69
388.148	1.8
388.505	1.92
388.862	2.08
389.22	2.12
389.577	2.23
389.934	2.35
390.291	2.45
390.648	2.59
391.005	2.78
391.362	2.94
391.718	3
392.075	3.13
392.432	3.35
392.789	3.43
393.145	3.53
393.502	3.68
393.859	3.84
394.215	3.96
394.572	4.13
394.928	4.34
395.285	4.46
395.641	4.67
395.997	4.88
396.354	5.22
396.71	5.56
397.066	5.79
397.422	6.11
397.778	6.37
398.134	6.7
398.491	6.94
398.846	7.19
399.202	7.53
399.558	7.85
399.914	8.08
400.27	8.4
400.626	8.75
400.981	9.09
401.337	9.37
401.693	9.76
402.048	10.22
402.404	10.54
402.759	10.95
403.115	11.34
403.47	11.72
403.826	12.11
404.181	12.56
404.536	13.08
404.892	13.49
405.247	14
405.602	14.48
405.957	15.03
406.312	15.38
406.667	15.74
407.022	16.2
407.377	16.75
407.732	17.32
408.087	17.85
408.442	18.35
408.796	18.9
409.151	19.46
409.506	20.03
409.86	20.61
410.215	21.21
410.57	21.88
410.924	22.31
411.279	22.94
411.633	23.58
411.987	24.29
412.342	24.77
412.696	25.33
413.05	25.92
413.404	26.47
413.758	27.06
414.113	27.64
414.467	28.04
414.821	28.56
415.175	29.28
415.529	29.96
415.882	30.51
416.236	30.99
416.59	31.46
416.944	31.95
417.298	32.43
417.651	32.89
418.005	33.45
418.358	33.96
418.712	34.44
419.065	34.82
419.419	35.12
419.772	35.65
420.126	36.12
420.479	36.36
420.832	36.77
421.185	37.21
421.539	37.58
421.892	37.85
422.245	38.2
422.598	38.45
422.951	38.7
423.304	39.08
423.657	39.36
424.01	39.65
424.363	39.9
424.715	40.18
425.068	40.72
425.421	41.15
425.773	41.48
426.126	41.86
426.479	42.22
426.831	42.42
427.184	42.55
427.536	42.92
427.889	43.29
428.241	43.66
428.593	43.96
428.945	44.29
429.298	44.74
429.65	44.92
430.002	45.11
430.354	45.39
430.706	45.74
431.058	45.94
431.41	46.3
431.762	46.5
432.114	46.71
432.466	46.9
432.817	47.25
433.169	47.62
433.521	47.99
433.872	47.96
434.224	48.01
434.576	48.15
434.927	48.38
435.279	48.59
435.63	48.74
435.981	49.15
436.333	49.19
436.684	49.26
437.035	49.15
437.387	49.22
437.738	49.15
438.089	49.11
438.44	49.2
438.791	49.51
439.142	49.47
439.493	49.64
439.844	49.66
440.195	49.64
440.545	49.72
440.896	49.93
441.247	49.99
441.598	49.85
441.948	49.75
442.299	49.82
442.649	49.83
443	49.83
443.35	49.88
443.701	49.69
444.051	49.64
444.401	49.84
444.752	49.59
445.102	49.64
445.452	49.56
445.802	49.77
446.152	49.84
446.502	49.95
446.852	49.94
447.202	49.99
447.552	49.9
447.902	50.07
448.252	50.04
448.602	50.54
448.952	50.46
449.301	50.62
449.651	50.62
450.001	50.64
450.35	50.65
450.7	50.74
451.049	50.64
451.399	50.71
451.748	50.66
452.097	50.66
452.447	50.73
452.796	50.68
453.145	50.51
453.494	50.64
453.843	50.43
454.193	50.59
454.542	50.61
454.891	50.44
455.239	50.38
455.588	50.4
455.937	50.38
456.286	50.39
456.635	50.19
456.984	50.16
457.332	49.69
457.681	49.82
458.03	49.47
458.378	49.22
458.727	49.17
459.075	49.03
459.423	48.95
459.772	48.77
460.12	48.68
460.468	48.58
460.817	48.41
461.165	48.27
461.513	48.27
461.861	48.18
462.209	47.9
462.557	47.92
462.905	47.71
463.253	47.52
463.601	47.47
463.949	47.45
464.297	47.33
464.644	47.16
464.992	46.92
465.34	46.81
465.687	46.68
466.035	46.41
466.383	46.28
466.73	46.32
467.078	46.22
467.425	46.12
467.772	46.07
468.12	45.84
468.467	45.7
468.814	45.73
469.161	45.71
469.508	45.54
469.856	45.39
470.203	45.07
470.55	44.9
470.897	44.85
471.243	44.8
471.59	44.62
471.937	44.5
472.284	44.35
472.631	44.11
472.977	43.88
473.324	43.86
473.671	43.6
474.017	43.47
474.364	43.29
474.71	43.09
475.057	42.76
475.403	42.52
475.749	42.33
476.096	42.2
476.442	42.03
476.788	41.77
477.134	41.58
477.48	41.24
477.826	41
478.172	40.79
478.518	40.6
478.864	40.53
479.21	40.27
479.556	40.03
479.902	39.81
480.248	39.62
480.593	39.28
480.939	39.08
481.285	38.89
481.63	38.75
481.976	38.49
482.321	38.44
482.667	38.27
483.012	38.14
483.357	38.04
483.703	37.95
484.048	37.81
484.393	37.66
484.738	37.42
485.084	37.29
485.429	37.24
485.774	37.12
486.119	37.01
486.464	36.83
486.808	36.73
487.153	36.52
487.498	36.32
487.843	36.18
488.188	36.02
488.532	35.84
488.877	35.59
489.222	35.47
489.566	35.22
489.911	35.09
490.255	34.96
490.6	34.74
490.944	34.51
491.288	34.28
491.633	34.07
491.977	33.77
492.321	33.56
492.665	33.24
493.009	33.01
493.353	32.73
493.697	32.5
494.041	32.18
494.385	31.95
494.729	31.68
495.073	31.47
495.417	31.33
495.76	31.1
496.104	30.86
496.448	30.67
496.791	30.48
497.135	30.22
497.479	30.12
497.822	29.96
498.165	29.81
498.509	29.53
498.852	29.24
499.196	29.1
499.539	28.95
499.882	28.73
500.225	28.5
500.568	28.38
500.911	28.28
501.254	28.19
501.597	28.16
501.94	28.07
502.283	27.84
502.626	27.77
502.969	27.57
503.312	27.37
503.654	27.3
503.997	27.04
504.34	26.98
504.682	26.84
505.025	26.72
505.367	26.49
505.71	26.27
506.052	26.05
506.395	25.84
506.737	25.71
507.079	25.63
507.421	25.45
507.764	25.22
508.106	25.01
508.448	24.95
508.79	24.78
509.132	24.66
509.474	24.47
509.816	24.25
510.158	23.99
510.499	23.96
510.841	23.9
511.183	23.79
511.525	23.73
511.866	23.72
512.208	23.46
512.549	23.35
512.891	23.18
513.232	23.15
513.574	23.07
513.915	23
514.256	22.92
514.598	22.93
514.939	22.87
515.28	22.65
515.621	22.46
515.962	22.33
516.303	22.3
516.644	22.23
516.985	21.99
517.326	21.91
517.667	21.87
518.008	21.81
518.349	21.85
518.69	21.85
519.03	21.64
519.371	21.59
519.712	21.4
520.052	21.27
520.393	21.19
520.733	21.17
521.074	21.11
521.414	21.06
521.754	20.86
522.095	20.65
522.435	20.57
522.775	20.52
523.115	20.37
523.455	20.08
523.795	20.03
524.135	20.01
524.475	19.96
524.815	19.84
525.155	19.84
525.495	19.85
525.835	19.73
526.175	19.54
526.514	19.4
526.854	19.28
527.194	19.15
527.533	19.04
527.873	18.9
528.212	18.89
528.552	18.94
528.891	18.75
529.23	18.67
529.57	18.57
529.909	18.38
530.248	18.13
530.587	18.12
530.927	17.98
531.266	17.89
531.605	17.72
531.944	17.82
532.283	17.69
532.621	17.63
532.96	17.7
533.299	17.6
533.638	17.44
533.977	17.31
534.315	17.31
534.654	17.22
534.992	17.11
535.331	17.05
535.67	16.96
536.008	16.88
536.346	16.69
536.685	16.56
537.023	16.44
537.361	16.36
537.7	16.22
538.038	16.24
538.376	16.25
538.714	16.32
539.052	16.23
539.39	16.23
539.728	16.16
540.066	16.1
540.404	16
540.741	16.02
541.079	15.78
541.417	15.69
541.755	15.66
542.092	15.71
542.43	15.75
542.767	15.65
543.105	15.76
543.442	15.75
543.78	15.73
544.117	15.75
544.454	15.67
544.792	15.85
545.129	15.9
545.466	15.8
545.803	15.87
546.14	15.97
546.477	15.7
546.814	15.74
547.151	15.84
547.488	15.91
547.825	15.91
548.162	16.03
548.499	16.04
548.835	16.1
549.172	16
549.509	16.09
549.845	15.92
550.182	15.83
550.518	15.76
550.855	15.72
551.191	15.7
551.528	15.58
551.864	15.67
552.2	15.59
552.537	15.49
552.873	15.59
553.209	15.36
553.545	15.34
553.881	15.37
554.217	15.4
554.553	15.35
554.889	15.51
555.225	15.45
555.561	15.37
555.896	15.27
556.232	15.19
556.568	15.16
556.903	15.15
557.239	15.21
557.575	15.35
557.91	15.31
558.245	15.48
558.581	15.68
558.916	15.66
559.252	15.77
559.587	15.7
559.922	15.72
560.257	15.58
560.592	15.86
560.928	15.99
561.263	15.99
561.598	16.07
561.933	16.05
562.267	16.36
562.602	16.35
562.937	16.27
563.272	16.49
563.607	16.53
563.941	16.54
564.276	16.52
564.611	16.63
564.945	16.66
565.28	16.7
565.614	16.65
565.949	16.75
566.283	16.87
566.617	16.81
566.951	16.84
567.286	16.96
567.62	16.94
567.954	17.14
568.288	17.2
568.622	17.29
568.956	17.23
569.29	17.22
569.624	17.27
569.958	17.36
570.292	17.42
570.626	17.33
570.959	17.31
571.293	17.42
571.627	17.45
571.96	17.61
572.294	17.67
572.627	17.86
572.961	18
573.294	18.06
573.627	18.21
573.961	18.27
574.294	18.3
574.627	18.32
574.961	18.47
575.294	18.49
575.627	18.42
575.96	18.46
576.293	18.45
576.626	18.47
576.959	18.59
577.292	18.7
577.624	18.81
577.957	18.82
578.29	18.94
578.623	19.02
578.955	19.06
579.288	19.19
579.62	19.35
579.953	19.46
580.285	19.44
580.618	19.65
580.95	19.59
581.282	19.53
581.615	19.58
581.947	19.65
582.279	19.79
582.611	19.91
582.943	20.06
583.275	20.11
583.607	20.22
583.939	20.37
584.271	20.58
584.603	20.76
584.935	20.9
585.267	20.98
585.598	21
585.93	21.07
586.262	21.21
586.593	21.23
586.925	21.29
587.256	21.54
587.588	21.63
587.919	21.7
588.25	21.73
588.582	21.91
588.913	21.87
589.244	22.2
589.575	22.51
589.907	22.67
590.238	22.74
590.569	22.8
590.9	22.93
591.231	23.06
591.562	23.31
591.892	23.45
592.223	23.58
592.554	23.66
592.885	23.83
593.215	24.03
593.546	24.26
593.877	24.38
594.207	24.54
594.538	24.8
594.868	25.09
595.198	25.34
595.529	25.31
595.859	25.51
596.189	25.64
596.52	25.86
596.85	25.91
597.18	26.24
597.51	26.28
597.84	26.32
598.17	26.44
598.5	26.6
598.83	26.96
599.16	27.24
599.489	27.39
599.819	27.49
600.149	27.88
600.479	28.23
600.808	28.43
601.138	28.63
601.467	28.81
601.797	29.11
602.126	29.53
602.456	29.86
602.785	29.98
603.114	30.15
603.443	30.47
603.773	30.92
604.102	31.25
604.431	31.57
604.76	31.84
605.089	32.24
605.418	32.23
605.747	32.51
606.076	32.75
606.405	33.09
606.733	33.4
607.062	33.68
607.391	33.81
607.72	34.05
608.048	34.45
608.377	34.64
608.705	34.86
609.034	35.25
609.362	35.67
609.69	36.18
610.019	36.45
610.347	36.69
610.675	36.83
611.004	37.13
611.332	37.55
611.66	37.89
611.988	37.93
612.316	37.97
612.644	38.02
612.972	38.11
613.3	38.36
613.627	38.84
613.955	39.4
614.283	39.91
614.611	40.05
614.938	40.38
615.266	40.51
615.593	40.83
615.921	41.45
616.248	41.65
616.576	42.16
616.903	43.01
617.23	43.51
617.558	43.89
617.885	44.15
618.212	44.32
618.539	44.73
618.866	45.27
619.193	45.85
619.52	46.02
619.847	46.24
620.174	46.59
620.501	47.17
620.828	47.6
621.155	48.15
621.481	48.12
621.808	48.34
622.135	48.12
622.461	48.25
622.788	48.56
623.114	49.07
623.441	49.33
623.767	49.66
624.093	49.78
624.42	50.25
624.746	50.46
625.072	50.47
625.398	50.68
625.725	51
626.051	51.21
626.377	51.98
626.703	51.92
627.029	52.08
627.354	52.06
627.68	52.63
628.006	52.7
628.332	53.3
628.658	53.97
628.983	54.35
629.309	54.58
629.634	55.47
629.96	55.85
630.285	56.76
630.611	57.16
630.936	57.88
631.262	57.55
631.587	57.73
631.912	58.32
632.237	58.69
632.562	59.27
632.887	59.35
633.213	59.5
633.538	60.22
633.863	60.59
634.187	61.07
634.512	60.99
634.837	61.47
635.162	61.68
635.487	62.03
635.811	61.76
636.136	62.04
636.461	62.1
636.785	62.1
637.11	62.99
637.434	63.06
637.758	63.18
638.083	63.09
638.407	62.68
638.731	62.61
639.056	62.64
639.38	62.66
639.704	63.3
640.028	63.4
640.352	63.63
640.676	62.61
641	63.04
641.324	62.71
641.648	61.94
641.972	61.97
642.295	62.63
642.619	62.88
642.943	62.49
643.266	62.36
643.59	62.71
643.913	62.6
644.237	62.51
644.56	61.85
644.884	61.71
645.207	61.49
645.53	61.64
645.854	61.68
646.177	62.45
646.5	62.72
646.823	63.02
647.146	63.37
647.469	64.31
647.792	64.95
648.115	64.48
648.438	65.35
648.761	67.93
649.084	68.57
649.406	69.18
649.729	68.53
650.052	68.34
650.374	68.42
650.697	68.54
651.019	68.72
651.342	69
651.664	69.05
651.987	69.17
652.309	69.52
652.631	69.84
652.953	70.11
653.276	70.08
653.598	70.4
653.92	70.39
654.242	70.31
654.564	70.46
654.886	70.63
655.208	70.48
655.53	70.18
655.851	69.89
656.173	70.05
656.495	70.01
656.816	69.47
657.138	69.37
657.46	69.03
657.781	71.18
658.103	72.9
