Data from T2_Reflection__81__01-22-02-871.txt Node

Date: Fri Jun 04 01:22:02 CEST 2021
User: mabdelazizm
Spectrometer: FLMS18565
Trigger mode: 0
Integration Time (sec): 2.000000E0
Scans to average: 1
Electric dark correction enabled: true
Nonlinearity correction enabled: false
Boxcar width: 12
XAxis mode: Wavelengths
Number of Pixels in Spectrum: 2048
>>>>>Begin Spectral Data<<<<<
179.071	322.87
179.452	54.01
179.833	60.68
180.214	1400
180.595	147.47
180.977	228.57
181.358	881.63
181.739	-412.12
182.12	-22.75
182.501	-32.8
182.882	-20.23
183.262	-29.59
183.643	-4.77
184.024	-13.24
184.405	13.83
184.786	39.08
185.166	61.21
185.547	56.04
185.927	47.59
186.308	49.01
186.689	60.61
187.069	56.33
187.449	56.75
187.83	54.26
188.21	58.37
188.59	59.25
188.971	58.68
189.351	58.99
189.731	60.9
190.111	63.89
190.491	62.71
190.871	61.22
191.251	64.34
191.631	63.03
192.011	60.85
192.391	60.78
192.771	67.3
193.151	66.45
193.531	67.15
193.91	62.41
194.29	58.88
194.67	55.47
195.049	56.42
195.429	60.18
195.808	61.14
196.188	55.15
196.567	50.61
196.946	52.49
197.326	50.58
197.705	49.55
198.084	48.69
198.464	42.39
198.843	42.19
199.222	44.85
199.601	43
199.98	46.86
200.359	46.38
200.738	46.52
201.117	46.88
201.496	46.85
201.875	45.99
202.254	42.86
202.632	39.81
203.011	39.81
203.39	40.04
203.768	40.29
204.147	38.05
204.525	34.28
204.904	32.42
205.282	32.88
205.661	35.49
206.039	36.66
206.418	35.08
206.796	32.89
207.174	36.83
207.552	38
207.931	38.24
208.309	37.6
208.687	36.62
209.065	36.53
209.443	35.34
209.821	35.73
210.199	35.29
210.577	35.54
210.954	35.97
211.332	36.74
211.71	35.49
212.088	37.48
212.465	38.63
212.843	40.26
213.221	38.45
213.598	41.05
213.976	42.04
214.353	41.87
214.731	39.49
215.108	37.16
215.485	35.36
215.863	32.1
216.24	34.4
216.617	31.09
216.994	30.55
217.371	29.69
217.749	29.64
218.126	26.58
218.503	25.53
218.88	24.81
219.256	23.04
219.633	20.75
220.01	19.27
220.387	19.74
220.764	19.02
221.14	19.33
221.517	19.16
221.894	17.02
222.27	16.56
222.647	16.99
223.023	15.67
223.4	15.04
223.776	13.59
224.153	13.64
224.529	13.77
224.905	13.84
225.282	14.62
225.658	13.76
226.034	13.23
226.41	12.9
226.786	13.17
227.162	12.49
227.538	12.98
227.914	12.35
228.29	11.64
228.666	11.15
229.042	11.11
229.418	10.96
229.793	10.25
230.169	9.85
230.545	9.21
230.92	9.02
231.296	9.17
231.672	8.77
232.047	8.37
232.422	8.34
232.798	8.22
233.173	8.21
233.549	8.05
233.924	8.05
234.299	8.07
234.674	7.83
235.05	7.92
235.425	7.85
235.8	7.26
236.175	7.04
236.55	6.84
236.925	6.71
237.3	6.6
237.675	6.56
238.049	6.59
238.424	6.63
238.799	6.44
239.174	6.5
239.548	6.47
239.923	6.37
240.297	6.23
240.672	6.24
241.046	6.28
241.421	6.26
241.795	6.15
242.17	6.03
242.544	5.93
242.918	5.9
243.293	5.79
243.667	5.87
244.041	5.85
244.415	5.72
244.789	5.75
245.163	5.88
245.537	5.87
245.911	5.85
246.285	5.79
246.659	5.76
247.033	5.69
247.406	5.69
247.78	5.63
248.154	5.67
248.528	5.67
248.901	5.73
249.275	5.8
249.648	5.84
250.022	5.78
250.395	5.74
250.769	5.69
251.142	5.74
251.515	5.75
251.888	5.77
252.262	5.72
252.635	5.77
253.008	5.68
253.381	5.58
253.754	5.54
254.127	5.5
254.5	5.45
254.873	5.4
255.246	5.48
255.619	5.46
255.992	5.48
256.364	5.48
256.737	5.45
257.11	5.4
257.483	5.3
257.855	5.31
258.228	5.23
258.6	5.26
258.973	5.21
259.345	5.15
259.718	5.09
260.09	5.12
260.462	5.02
260.834	4.97
261.207	4.94
261.579	4.96
261.951	4.9
262.323	4.86
262.695	4.91
263.067	4.95
263.439	4.95
263.811	5
264.183	4.98
264.555	4.92
264.927	4.95
265.298	5
265.67	5.02
266.042	5.02
266.413	4.92
266.785	5.03
267.156	5.04
267.528	4.98
267.899	4.87
268.271	4.85
268.642	4.84
269.013	4.9
269.385	4.86
269.756	4.8
270.127	4.87
270.498	4.92
270.87	4.86
271.241	4.81
271.612	4.78
271.983	4.72
272.354	4.64
272.724	4.61
273.095	4.62
273.466	4.67
273.837	4.66
274.208	4.61
274.578	4.52
274.949	4.41
275.32	4.36
275.69	4.47
276.061	4.45
276.431	4.37
276.802	4.37
277.172	4.42
277.542	4.29
277.913	4.3
278.283	4.25
278.653	4.29
279.023	4.35
279.394	4.34
279.764	4.32
280.134	4.34
280.504	4.36
280.874	4.34
281.244	4.33
281.614	4.39
281.983	4.31
282.353	4.29
282.723	4.21
283.093	4.18
283.462	4.19
283.832	4.18
284.202	4.26
284.571	4.21
284.941	4.24
285.31	4.24
285.68	4.24
286.049	4.25
286.418	4.23
286.788	4.34
287.157	4.37
287.526	4.33
287.895	4.24
288.264	4.22
288.633	4.09
289.002	4.1
289.371	4.11
289.74	4.02
290.109	4.03
290.478	4.07
290.847	4.04
291.216	4.06
291.585	3.94
291.953	3.95
292.322	4.02
292.691	3.97
293.059	3.97
293.428	3.89
293.796	3.87
294.165	3.8
294.533	3.77
294.901	3.79
295.27	3.72
295.638	3.77
296.006	3.75
296.374	3.66
296.743	3.67
297.111	3.76
297.479	3.77
297.847	3.79
298.215	3.72
298.583	3.64
298.95	3.64
299.318	3.57
299.686	3.54
300.054	3.51
300.422	3.53
300.789	3.62
301.157	3.57
301.525	3.49
301.892	3.5
302.26	3.52
302.627	3.56
302.994	3.59
303.362	3.6
303.729	3.6
304.097	3.49
304.464	3.52
304.831	3.44
305.198	3.36
305.565	3.33
305.932	3.26
306.299	3.22
306.666	3.23
307.033	3.28
307.4	3.33
307.767	3.28
308.134	3.35
308.501	3.42
308.867	3.33
309.234	3.34
309.601	3.3
309.967	3.27
310.334	3.33
310.701	3.34
311.067	3.31
311.433	3.27
311.8	3.28
312.166	3.24
312.533	3.22
312.899	3.21
313.265	3.23
313.631	3.26
313.997	3.25
314.363	3.27
314.729	3.3
315.096	3.33
315.461	3.29
315.827	3.21
316.193	3.18
316.559	3.07
316.925	3.15
317.291	3.1
317.656	3.08
318.022	3.17
318.388	3.07
318.753	3.12
319.119	3.11
319.484	3.15
319.85	3.05
320.215	3.09
320.581	3.11
320.946	3.11
321.311	3.14
321.676	3.1
322.042	3.05
322.407	3.09
322.772	2.98
323.137	3.02
323.502	2.99
323.867	2.99
324.232	2.98
324.597	3.03
324.962	3.08
325.327	3.18
325.691	3.23
326.056	3.11
326.421	3.12
326.785	3.08
327.15	3.07
327.514	3.15
327.879	3.1
328.243	3.07
328.608	3.04
328.972	3.17
329.337	3.07
329.701	3.04
330.065	3.07
330.429	3.04
330.794	3.04
331.158	3.13
331.522	3.16
331.886	3.24
332.25	3.16
332.614	3.16
332.978	3.14
333.342	3.16
333.705	3.12
334.069	3.16
334.433	3.03
334.797	3.02
335.16	3.1
335.524	3.08
335.887	3.02
336.251	2.97
336.614	2.96
336.978	2.93
337.341	2.88
337.705	2.83
338.068	2.89
338.431	2.93
338.794	2.97
339.158	2.91
339.521	2.9
339.884	2.91
340.247	2.77
340.61	2.68
340.973	2.58
341.336	2.65
341.699	2.66
342.062	2.68
342.424	2.65
342.787	2.62
343.15	2.58
343.512	2.66
343.875	2.69
344.238	2.67
344.6	2.65
344.963	2.73
345.325	2.74
345.688	2.76
346.05	2.79
346.412	2.87
346.775	2.89
347.137	2.77
347.499	2.75
347.861	2.75
348.223	2.79
348.585	2.84
348.947	2.78
349.309	2.81
349.671	2.79
350.033	2.92
350.395	2.92
350.757	2.99
351.118	2.93
351.48	2.97
351.842	2.96
352.203	2.92
352.565	2.89
352.927	2.85
353.288	2.81
353.65	2.78
354.011	2.73
354.372	2.73
354.734	2.75
355.095	2.77
355.456	2.82
355.817	2.78
356.179	2.74
356.54	2.76
356.901	2.79
357.262	2.77
357.623	2.72
357.984	2.84
358.345	2.91
358.705	2.98
359.066	2.86
359.427	2.82
359.788	2.79
360.148	2.86
360.509	2.8
360.87	2.81
361.23	2.9
361.591	2.91
361.951	3.05
362.312	3.17
362.672	3.28
363.032	3.3
363.393	3.25
363.753	3.22
364.113	3.22
364.473	3.23
364.833	3.19
365.193	3.22
365.553	3.22
365.913	3.21
366.273	3.23
366.633	3.25
366.993	3.18
367.353	3.13
367.713	3.16
368.072	3.17
368.432	3.14
368.792	3.13
369.151	3.09
369.511	3.1
369.87	3.08
370.23	3
370.589	2.99
370.949	2.86
371.308	2.82
371.667	2.75
372.027	2.75
372.386	2.8
372.745	2.83
373.104	2.79
373.463	2.74
373.822	2.79
374.181	2.77
374.54	2.7
374.899	2.63
375.258	2.59
375.617	2.64
375.975	2.69
376.334	2.74
376.693	2.69
377.052	2.73
377.41	2.84
377.769	2.8
378.127	2.87
378.486	2.95
378.844	3.03
379.202	3.08
379.561	2.96
379.919	2.85
380.277	2.86
380.636	2.88
380.994	2.9
381.352	2.9
381.71	2.78
382.068	2.75
382.426	2.68
382.784	2.71
383.142	2.74
383.5	2.87
383.857	3.01
384.215	3.06
384.573	3.07
384.931	3.02
385.288	2.99
385.646	3.1
386.003	3.15
386.361	3.18
386.718	3.29
387.076	3.28
387.433	3.17
387.791	3.13
388.148	3.19
388.505	3.36
388.862	3.51
389.22	3.55
389.577	3.61
389.934	3.66
390.291	3.73
390.648	3.96
391.005	4.2
391.362	4.44
391.718	4.57
392.075	4.74
392.432	4.85
392.789	4.89
393.145	5.05
393.502	5.22
393.859	5.37
394.215	5.55
394.572	5.71
394.928	5.94
395.285	6.08
395.641	6.26
395.997	6.61
396.354	7.01
396.71	7.41
397.066	7.66
397.422	8.04
397.778	8.44
398.134	8.8
398.491	9.15
398.846	9.53
399.202	9.97
399.558	10.28
399.914	10.64
400.27	10.95
400.626	11.38
400.981	11.89
401.337	12.38
401.693	12.9
402.048	13.32
402.404	13.82
402.759	14.44
403.115	14.98
403.47	15.52
403.826	16.11
404.181	16.73
404.536	17.26
404.892	17.7
405.247	18.33
405.602	18.88
405.957	19.49
406.312	20.05
406.667	20.6
407.022	21.24
407.377	21.86
407.732	22.64
408.087	23.27
408.442	24.04
408.796	24.69
409.151	25.39
409.506	26.11
409.86	26.64
410.215	27.32
410.57	27.97
410.924	28.68
411.279	29.21
411.633	29.96
411.987	30.72
412.342	31.43
412.696	32.02
413.05	32.67
413.404	33.47
413.758	34.33
414.113	34.89
414.467	35.57
414.821	36.2
415.175	36.9
415.529	37.61
415.882	38.32
416.236	38.92
416.59	39.43
416.944	40.1
417.298	40.74
417.651	41.22
418.005	41.78
418.358	42.31
418.712	42.91
419.065	43.42
419.419	44
419.772	44.6
420.126	45.21
420.479	45.53
420.832	46.02
421.185	46.22
421.539	46.56
421.892	46.88
422.245	47.28
422.598	47.54
422.951	48.14
423.304	48.33
423.657	48.53
424.01	48.88
424.363	49.14
424.715	49.43
425.068	49.88
425.421	50.3
425.773	50.63
426.126	50.9
426.479	51.24
426.831	51.43
427.184	51.51
427.536	51.73
427.889	51.93
428.241	52.21
428.593	52.28
428.945	52.57
429.298	52.92
429.65	52.98
430.002	53.41
430.354	53.72
430.706	54.02
431.058	54.24
431.41	54.57
431.762	54.58
432.114	54.82
432.466	55.05
432.817	55.23
433.169	55.6
433.521	55.72
433.872	55.77
434.224	55.89
434.576	56.02
434.927	56.24
435.279	56.43
435.63	56.74
435.981	57.12
436.333	57.35
436.684	57.53
437.035	57.53
437.387	57.58
437.738	57.55
438.089	57.51
438.44	57.74
438.791	57.93
439.142	58.01
439.493	58.24
439.844	58.24
440.195	58.17
440.545	58.27
440.896	58.44
441.247	58.65
441.598	58.6
441.948	58.49
442.299	58.53
442.649	58.69
443	58.85
443.35	58.84
443.701	58.78
444.051	58.8
444.401	58.82
444.752	58.77
445.102	58.85
445.452	58.77
445.802	58.97
446.152	59.38
446.502	59.51
446.852	59.56
447.202	59.39
447.552	59.24
447.902	59.42
448.252	59.24
448.602	59.6
448.952	59.84
449.301	59.8
449.651	60.01
450.001	60.1
450.35	60.34
450.7	60.26
451.049	60.49
451.399	60.58
451.748	60.48
452.097	60.64
452.447	60.68
452.796	60.83
453.145	60.97
453.494	60.91
453.843	60.7
454.193	60.83
454.542	60.78
454.891	60.45
455.239	60.34
455.588	60.33
455.937	60.65
456.286	60.84
456.635	60.58
456.984	60.57
457.332	60.09
457.681	60.09
458.03	59.95
458.378	59.7
458.727	59.85
459.075	59.66
459.423	59.92
459.772	59.7
460.12	59.59
460.468	59.55
460.817	59.53
461.165	59.4
461.513	59.23
461.861	59.08
462.209	59.13
462.557	59.19
462.905	59.17
463.253	59.08
463.601	59.1
463.949	59.21
464.297	59.15
464.644	59.04
464.992	58.94
465.34	59.1
465.687	59.2
466.035	59.22
466.383	59
466.73	59.08
467.078	59.04
467.425	58.75
467.772	58.7
468.12	58.54
468.467	58.56
468.814	58.53
469.161	58.53
469.508	58.44
469.856	58.38
470.203	58.43
470.55	58.41
470.897	58.24
471.243	58.15
471.59	58.02
471.937	57.96
472.284	58.04
472.631	57.87
472.977	57.89
473.324	57.81
473.671	57.69
474.017	57.39
474.364	57.28
474.71	57.1
475.057	56.93
475.403	56.81
475.749	56.75
476.096	56.76
476.442	56.79
476.788	56.57
477.134	56.32
477.48	56.05
477.826	55.83
478.172	55.63
478.518	55.65
478.864	55.32
479.21	55.05
479.556	54.81
479.902	54.71
480.248	54.52
480.593	54.22
480.939	54
481.285	53.91
481.63	53.76
481.976	53.5
482.321	53.27
482.667	53.27
483.012	53.18
483.357	53.24
483.703	53.05
484.048	53.04
484.393	52.82
484.738	52.6
485.084	52.41
485.429	52.3
485.774	52.35
486.119	52.37
486.464	52.22
486.808	52.2
487.153	51.88
487.498	51.95
487.843	51.86
488.188	51.85
488.532	51.72
488.877	51.59
489.222	51.55
489.566	51.41
489.911	51.37
490.255	51.25
490.6	51.14
490.944	51.07
491.288	50.88
491.633	50.69
491.977	50.28
492.321	50.24
492.665	49.96
493.009	49.72
493.353	49.51
493.697	49.34
494.041	49.25
494.385	48.97
494.729	48.74
495.073	48.63
495.417	48.45
495.76	48.35
496.104	48.01
496.448	47.88
496.791	47.64
497.135	47.43
497.479	47.31
497.822	47.13
498.165	46.9
498.509	46.63
498.852	46.3
499.196	46.24
499.539	46.19
499.882	46.06
500.225	45.91
500.568	45.82
500.911	45.69
501.254	45.66
501.597	45.73
501.94	45.71
502.283	45.55
502.626	45.38
502.969	45.2
503.312	45.05
503.654	44.99
503.997	44.72
504.34	44.62
504.682	44.61
505.025	44.57
505.367	44.49
505.71	44.29
506.052	44.15
506.395	44.06
506.737	44.01
507.079	43.94
507.421	43.91
507.764	43.71
508.106	43.49
508.448	43.33
508.79	43.14
509.132	43.03
509.474	42.89
509.816	42.7
510.158	42.46
510.499	42.25
510.841	42.17
511.183	42.11
511.525	42.03
511.866	42
512.208	41.79
512.549	41.79
512.891	41.77
513.232	41.68
513.574	41.47
513.915	41.4
514.256	41.38
514.598	41.35
514.939	41.15
515.28	40.97
515.621	40.81
515.962	40.69
516.303	40.65
516.644	40.58
516.985	40.49
517.326	40.48
517.667	40.39
518.008	40.22
518.349	40.14
518.69	40.18
519.03	40.22
519.371	40.16
519.712	40.03
520.052	39.99
520.393	39.89
520.733	39.82
521.074	39.6
521.414	39.43
521.754	39.15
522.095	39.1
522.435	38.94
522.775	38.76
523.115	38.61
523.455	38.52
523.795	38.48
524.135	38.36
524.475	38.24
524.815	37.98
525.155	37.85
525.495	37.75
525.835	37.65
526.175	37.56
526.514	37.58
526.854	37.47
527.194	37.4
527.533	37.27
527.873	37.06
528.212	36.98
528.552	36.88
528.891	36.71
529.23	36.56
529.57	36.54
529.909	36.4
530.248	36.38
530.587	36.22
530.927	36.23
531.266	36.14
531.605	35.97
531.944	35.81
532.283	35.69
532.621	35.59
532.96	35.67
533.299	35.58
533.638	35.41
533.977	35.33
534.315	35.16
534.654	35.16
534.992	34.97
535.331	34.83
535.67	34.66
536.008	34.47
536.346	34.39
536.685	34.22
537.023	34.13
537.361	34.02
537.7	33.91
538.038	33.75
538.376	33.62
538.714	33.52
539.052	33.51
539.39	33.47
539.728	33.45
540.066	33.33
540.404	33.44
540.741	33.33
541.079	33.26
541.417	33.03
541.755	32.96
542.092	32.95
542.43	32.81
542.767	32.66
543.105	32.61
543.442	32.55
543.78	32.44
544.117	32.18
544.454	32.2
544.792	32.21
545.129	32.25
545.466	32.18
545.803	32.15
546.14	32.25
546.477	32.25
546.814	32.27
547.151	32.34
547.488	32.28
547.825	32.09
548.162	32.21
548.499	32.35
548.835	32.28
549.172	32.29
549.509	32.25
549.845	32.22
550.182	32.22
550.518	32.11
550.855	32.2
551.191	32.37
551.528	32.18
551.864	32.35
552.2	32.42
552.537	32.61
552.873	32.45
553.209	32.41
553.545	32.4
553.881	32.5
554.217	32.6
554.553	32.57
554.889	32.62
555.225	32.72
555.561	32.71
555.896	32.61
556.232	32.58
556.568	32.52
556.903	32.53
557.239	32.65
557.575	32.75
557.91	32.72
558.245	32.75
558.581	32.79
558.916	32.98
559.252	33.07
559.587	33.01
559.922	33.25
560.257	33.13
560.592	33.16
560.928	33.23
561.263	33.39
561.598	33.38
561.933	33.37
562.267	33.56
562.602	33.56
562.937	33.51
563.272	33.66
563.607	33.52
563.941	33.54
564.276	33.65
564.611	33.8
564.945	33.62
565.28	33.46
565.614	33.36
565.949	33.17
566.283	33.29
566.617	33.34
566.951	33.37
567.286	33.37
567.62	33.31
567.954	33.37
568.288	33.38
568.622	33.38
568.956	33.47
569.29	33.48
569.624	33.58
569.958	33.6
570.292	33.74
570.626	33.64
570.959	33.7
571.293	33.73
571.627	33.63
571.96	33.8
572.294	33.78
572.627	33.82
572.961	33.93
573.294	34.09
573.627	34.25
573.961	34.32
574.294	34.41
574.627	34.46
574.961	34.48
575.294	34.51
575.627	34.55
575.96	34.54
576.293	34.5
576.626	34.51
576.959	34.59
577.292	34.56
577.624	34.59
577.957	34.6
578.29	34.69
578.623	34.73
578.955	34.8
579.288	34.85
579.62	34.98
579.953	35.23
580.285	35.25
580.618	35.41
580.95	35.43
581.282	35.38
581.615	35.42
581.947	35.52
582.279	35.73
582.611	35.8
582.943	35.92
583.275	36.03
583.607	36.25
583.939	36.35
584.271	36.6
584.603	36.82
584.935	36.94
585.267	37.03
585.598	37.14
585.93	37.23
586.262	37.27
586.593	37.42
586.925	37.39
587.256	37.48
587.588	37.52
587.919	37.49
588.25	37.53
588.582	37.64
588.913	37.71
589.244	37.98
589.575	38.21
589.907	38.36
590.238	38.4
590.569	38.45
590.9	38.65
591.231	38.75
591.562	38.92
591.892	39.01
592.223	39.19
592.554	39.34
592.885	39.33
593.215	39.39
593.546	39.52
593.877	39.59
594.207	39.79
594.538	40.02
594.868	40.25
595.198	40.5
595.529	40.74
595.859	40.98
596.189	41.24
596.52	41.37
596.85	41.43
597.18	41.47
597.51	41.54
597.84	41.62
598.17	41.76
598.5	41.89
598.83	42.09
599.16	42.42
599.489	42.5
599.819	42.71
600.149	42.95
600.479	43.09
600.808	43.22
601.138	43.51
601.467	43.82
601.797	44.05
602.126	44.45
602.456	44.72
602.785	45.01
603.114	45.09
603.443	45.43
603.773	45.68
604.102	45.89
604.431	46.16
604.76	46.25
605.089	46.5
605.418	46.85
605.747	47.13
606.076	47.36
606.405	47.59
606.733	47.94
607.062	48.34
607.391	48.41
607.72	48.83
608.048	49.12
608.377	49.28
608.705	49.7
609.034	50.03
609.362	50.46
609.69	50.85
610.019	51.35
610.347	51.49
610.675	51.56
611.004	51.82
611.332	52.17
611.66	52.47
611.988	52.43
612.316	52.59
612.644	52.79
612.972	53
613.3	53.34
613.627	53.48
613.955	53.84
614.283	54.17
614.611	54.37
614.938	54.64
615.266	54.64
615.593	54.96
615.921	55.26
616.248	55.61
616.576	56.04
616.903	56.46
617.23	56.75
617.558	57.2
617.885	57.44
618.212	57.58
618.539	58.32
618.866	58.69
619.193	58.57
619.52	58.73
619.847	58.73
620.174	59.45
620.501	59.86
620.828	60.03
621.155	60.61
621.481	60.87
621.808	61.39
622.135	61.19
622.461	61.28
622.788	61.3
623.114	61.5
623.441	61.35
623.767	61.57
624.093	61.76
624.42	62.18
624.746	62.49
625.072	62.61
625.398	63.17
625.725	63.23
626.051	63.37
626.377	63.46
626.703	63.51
627.029	63.83
627.354	64.56
627.68	65.02
628.006	65.4
628.332	65.5
628.658	65.95
628.983	65.9
629.309	65.81
629.634	66.06
629.96	66.16
630.285	67.18
630.611	67.54
630.936	68.17
631.262	68.39
631.587	68.95
631.912	69.13
632.237	69.84
632.562	70.35
632.887	70.13
633.213	70.23
633.538	70.23
633.863	70.8
634.187	70.86
634.512	70.9
634.837	70.8
635.162	70.6
635.487	70.15
635.811	69.87
636.136	70.16
636.461	70.02
636.785	70.4
637.11	71.46
637.434	71.42
637.758	71.68
638.083	71.96
638.407	71.8
638.731	72.4
639.056	72.8
639.38	72.43
639.704	72.87
640.028	73.42
640.352	72.9
640.676	71.41
641	72.3
641.324	72.01
641.648	71.62
641.972	71.39
642.295	71.99
642.619	72.27
642.943	71.97
643.266	71.75
643.59	72.39
643.913	72.25
644.237	72.26
644.56	72.25
644.884	72.26
645.207	71.94
645.53	72.35
645.854	72.35
646.177	72.02
646.5	72.13
646.823	71.94
647.146	72.18
647.469	72.31
647.792	72.29
648.115	71.88
648.438	72.14
648.761	73.94
649.084	73.95
649.406	73.2
649.729	72.11
650.052	71.87
650.374	71.84
650.697	71.97
651.019	72.21
651.342	72.53
651.664	72.44
651.987	72.56
652.309	72.62
652.631	72.86
652.953	73.04
653.276	72.87
653.598	73.14
653.92	73.15
654.242	73.51
654.564	73.63
654.886	73.66
655.208	73.41
655.53	73.45
655.851	73.6
656.173	73.73
656.495	73.86
656.816	73.61
