Data from T2_Reflection__75__01-17-34-879.txt Node

Date: Fri Jun 04 01:17:34 CEST 2021
User: mabdelazizm
Spectrometer: FLMS18565
Trigger mode: 0
Integration Time (sec): 2.000000E0
Scans to average: 1
Electric dark correction enabled: true
Nonlinearity correction enabled: false
Boxcar width: 12
XAxis mode: Wavelengths
Number of Pixels in Spectrum: 2048
>>>>>Begin Spectral Data<<<<<
179.071	-22.87
179.452	-118.57
179.833	-73.65
180.214	-1350
180.595	-14.59
180.977	-38.92
181.358	-744.9
181.739	142.42
182.12	87.68
182.501	13.9
182.882	47.06
183.262	19.53
183.643	28.17
184.024	18.57
184.405	30.59
184.786	40.92
185.166	55.6
185.547	36.84
185.927	37.68
186.308	41.5
186.689	51.47
187.069	44.19
187.449	47.67
187.83	39.08
188.21	34.32
188.59	38.39
188.971	35.58
189.351	37.27
189.731	36.46
190.111	39.26
190.491	39.53
190.871	40.64
191.251	42.53
191.631	38.76
192.011	37.46
192.391	32.46
192.771	36.5
193.151	32.93
193.531	31.95
193.91	31.34
194.29	31.56
194.67	32
195.049	33.98
195.429	32.23
195.808	33.83
196.188	28.93
196.567	27.02
196.946	26.74
197.326	27.31
197.705	29.64
198.084	28.31
198.464	24.21
198.843	19.86
199.222	19.57
199.601	15.28
199.98	14.77
200.359	14.69
200.738	18.99
201.117	20.02
201.496	21.18
201.875	23.67
202.254	21.59
202.632	23.49
203.011	25.16
203.39	24.68
203.768	22.73
204.147	19.15
204.525	17.01
204.904	17.24
205.282	14.01
205.661	14.83
206.039	15.01
206.418	16.25
206.796	16.1
207.174	18.15
207.552	20.93
207.931	22.1
208.309	23.74
208.687	23.51
209.065	26.25
209.443	26.26
209.821	25.93
210.199	25.71
210.577	26.14
210.954	26.29
211.332	25.35
211.71	24.31
212.088	21.95
212.465	22.78
212.843	22.78
213.221	21.08
213.598	22.87
213.976	21.63
214.353	22.76
214.731	23.97
215.108	24.15
215.485	23.25
215.863	22.44
216.24	21.2
216.617	17.9
216.994	16.07
217.371	15.56
217.749	15.37
218.126	14.03
218.503	11.71
218.88	10.54
219.256	10.66
219.633	9.35
220.01	8.78
220.387	8.79
220.764	8.13
221.14	8.21
221.517	9.77
221.894	7.63
222.27	7.64
222.647	8.61
223.023	7.91
223.4	8.19
223.776	6.48
224.153	6.56
224.529	5.94
224.905	6.69
225.282	6.96
225.658	7.29
226.034	7.63
226.41	7.26
226.786	7.28
227.162	7.63
227.538	7.32
227.914	7.42
228.29	7.2
228.666	6.86
229.042	6.51
229.418	6.46
229.793	6.33
230.169	6.19
230.545	6.23
230.92	5.71
231.296	6.18
231.672	6.18
232.047	6.16
232.422	6
232.798	5.75
233.173	5.86
233.549	5.91
233.924	6.14
234.299	6.16
234.674	6.23
235.05	6.36
235.425	6.22
235.8	5.81
236.175	5.72
236.55	5.58
236.925	5.79
237.3	5.7
237.675	5.79
238.049	5.59
238.424	5.67
238.799	5.67
239.174	5.72
239.548	5.86
239.923	5.68
240.297	5.8
240.672	5.63
241.046	5.58
241.421	5.49
241.795	5.47
242.17	5.49
242.544	5.33
242.918	5.24
243.293	5.17
243.667	5.2
244.041	5.05
244.415	4.92
244.789	4.8
245.163	5
245.537	5.01
245.911	4.94
246.285	4.84
246.659	4.82
247.033	4.73
247.406	4.83
247.78	4.84
248.154	4.73
248.528	4.64
248.901	4.66
249.275	4.74
249.648	4.73
250.022	4.82
250.395	4.74
250.769	4.78
251.142	4.77
251.515	4.77
251.888	4.82
252.262	4.85
252.635	4.85
253.008	4.8
253.381	4.76
253.754	4.76
254.127	4.86
254.5	4.8
254.873	4.77
255.246	4.84
255.619	4.89
255.992	4.95
256.364	4.99
256.737	4.89
257.11	4.8
257.483	4.74
257.855	4.78
258.228	4.69
258.6	4.69
258.973	4.63
259.345	4.53
259.718	4.53
260.09	4.44
260.462	4.39
260.834	4.39
261.207	4.31
261.579	4.31
261.951	4.28
262.323	4.22
262.695	4.22
263.067	4.19
263.439	4.13
263.811	4.13
264.183	4.01
264.555	3.95
264.927	3.92
265.298	3.91
265.67	3.91
266.042	3.95
266.413	3.91
266.785	3.98
267.156	3.95
267.528	3.92
267.899	3.86
268.271	3.89
268.642	3.93
269.013	3.92
269.385	3.94
269.756	3.89
270.127	3.9
270.498	3.98
270.87	3.87
271.241	3.83
271.612	3.78
271.983	3.72
272.354	3.68
272.724	3.66
273.095	3.75
273.466	3.77
273.837	3.75
274.208	3.76
274.578	3.69
274.949	3.62
275.32	3.61
275.69	3.58
276.061	3.63
276.431	3.64
276.802	3.68
277.172	3.69
277.542	3.59
277.913	3.59
278.283	3.59
278.653	3.58
279.023	3.62
279.394	3.58
279.764	3.56
280.134	3.64
280.504	3.62
280.874	3.61
281.244	3.64
281.614	3.7
281.983	3.64
282.353	3.56
282.723	3.59
283.093	3.58
283.462	3.54
283.832	3.52
284.202	3.55
284.571	3.47
284.941	3.51
285.31	3.52
285.68	3.6
286.049	3.55
286.418	3.5
286.788	3.59
287.157	3.55
287.526	3.53
287.895	3.51
288.264	3.49
288.633	3.45
289.002	3.46
289.371	3.38
289.74	3.35
290.109	3.37
290.478	3.41
290.847	3.37
291.216	3.35
291.585	3.27
291.953	3.25
292.322	3.33
292.691	3.33
293.059	3.35
293.428	3.28
293.796	3.33
294.165	3.28
294.533	3.26
294.901	3.18
295.27	3.14
295.638	3.14
296.006	3.04
296.374	3.02
296.743	3
297.111	3.05
297.479	2.93
297.847	2.89
298.215	2.83
298.583	2.79
298.95	2.81
299.318	2.76
299.686	2.69
300.054	2.61
300.422	2.68
300.789	2.72
301.157	2.72
301.525	2.63
301.892	2.6
302.26	2.58
302.627	2.59
302.994	2.59
303.362	2.62
303.729	2.58
304.097	2.52
304.464	2.57
304.831	2.53
305.198	2.51
305.565	2.41
305.932	2.39
306.299	2.31
306.666	2.45
307.033	2.51
307.4	2.55
307.767	2.56
308.134	2.54
308.501	2.59
308.867	2.54
309.234	2.59
309.601	2.56
309.967	2.56
310.334	2.53
310.701	2.55
311.067	2.59
311.433	2.65
311.8	2.67
312.166	2.59
312.533	2.56
312.899	2.53
313.265	2.52
313.631	2.46
313.997	2.44
314.363	2.4
314.729	2.4
315.096	2.4
315.461	2.43
315.827	2.35
316.193	2.32
316.559	2.21
316.925	2.21
317.291	2.17
317.656	2.15
318.022	2.21
318.388	2.15
318.753	2.16
319.119	2.13
319.484	2.12
319.85	2
320.215	1.97
320.581	1.91
320.946	1.89
321.311	1.92
321.676	1.9
322.042	1.85
322.407	1.78
322.772	1.77
323.137	1.82
323.502	1.89
323.867	1.98
324.232	2.01
324.597	2.01
324.962	2.05
325.327	2.07
325.691	2.18
326.056	2.19
326.421	2.2
326.785	2.2
327.15	2.13
327.514	2.18
327.879	2.17
328.243	2.22
328.608	2.28
328.972	2.4
329.337	2.3
329.701	2.22
330.065	2.23
330.429	2.26
330.794	2.2
331.158	2.3
331.522	2.44
331.886	2.47
332.25	2.41
332.614	2.38
332.978	2.34
333.342	2.37
333.705	2.38
334.069	2.37
334.433	2.32
334.797	2.22
335.16	2.21
335.524	2.26
335.887	2.15
336.251	2.13
336.614	2.13
336.978	2.1
337.341	2.07
337.705	2.02
338.068	1.99
338.431	2.02
338.794	1.95
339.158	1.9
339.521	1.87
339.884	1.87
340.247	1.77
340.61	1.73
340.973	1.66
341.336	1.75
341.699	1.78
342.062	1.72
342.424	1.59
342.787	1.53
343.15	1.38
343.512	1.47
343.875	1.5
344.238	1.42
344.6	1.36
344.963	1.46
345.325	1.48
345.688	1.46
346.05	1.47
346.412	1.38
346.775	1.42
347.137	1.35
347.499	1.41
347.861	1.51
348.223	1.57
348.585	1.64
348.947	1.67
349.309	1.67
349.671	1.54
350.033	1.65
350.395	1.6
350.757	1.62
351.118	1.63
351.48	1.74
351.842	1.74
352.203	1.82
352.565	1.75
352.927	1.73
353.288	1.75
353.65	1.77
354.011	1.72
354.372	1.69
354.734	1.71
355.095	1.7
355.456	1.78
355.817	1.67
356.179	1.75
356.54	1.72
356.901	1.67
357.262	1.59
357.623	1.5
357.984	1.57
358.345	1.63
358.705	1.73
359.066	1.6
359.427	1.62
359.788	1.58
360.148	1.65
360.509	1.57
360.87	1.61
361.23	1.58
361.591	1.55
361.951	1.62
362.312	1.71
362.672	1.72
363.032	1.76
363.393	1.8
363.753	1.79
364.113	1.84
364.473	1.89
364.833	1.94
365.193	1.86
365.553	1.89
365.913	1.89
366.273	2.02
366.633	2.02
366.993	1.98
367.353	1.91
367.713	1.88
368.072	1.95
368.432	1.87
368.792	1.94
369.151	1.93
369.511	1.91
369.87	1.86
370.23	1.84
370.589	1.89
370.949	1.85
371.308	1.78
371.667	1.76
372.027	1.79
372.386	1.83
372.745	1.83
373.104	1.82
373.463	1.8
373.822	1.83
374.181	1.88
374.54	1.78
374.899	1.85
375.258	1.81
375.617	1.86
375.975	1.88
376.334	1.92
376.693	2.01
377.052	1.96
377.41	2.01
377.769	1.92
378.127	1.91
378.486	1.97
378.844	2.07
379.202	2.18
379.561	2.11
379.919	2
380.277	2.02
380.636	2.09
380.994	2.11
381.352	2.09
381.71	2.12
382.068	2.09
382.426	1.98
382.784	1.98
383.142	2.02
383.5	2.13
383.857	2.22
384.215	2.24
384.573	2.26
384.931	2.23
385.288	2.29
385.646	2.31
386.003	2.39
386.361	2.4
386.718	2.41
387.076	2.4
387.433	2.35
387.791	2.33
388.148	2.32
388.505	2.4
388.862	2.45
389.22	2.47
389.577	2.38
389.934	2.32
390.291	2.31
390.648	2.36
391.005	2.46
391.362	2.63
391.718	2.64
392.075	2.62
392.432	2.66
392.789	2.59
393.145	2.58
393.502	2.64
393.859	2.72
394.215	2.67
394.572	2.67
394.928	2.74
395.285	2.82
395.641	2.93
395.997	3.07
396.354	3.23
396.71	3.29
397.066	3.31
397.422	3.5
397.778	3.65
398.134	3.75
398.491	3.9
398.846	4.03
399.202	4.26
399.558	4.33
399.914	4.38
400.27	4.42
400.626	4.56
400.981	4.71
401.337	4.85
401.693	5.03
402.048	5.19
402.404	5.28
402.759	5.5
403.115	5.64
403.47	5.85
403.826	6.16
404.181	6.38
404.536	6.61
404.892	6.7
405.247	7.03
405.602	7.31
405.957	7.62
406.312	7.83
406.667	8.06
407.022	8.33
407.377	8.59
407.732	8.93
408.087	9.13
408.442	9.48
408.796	9.84
409.151	10.28
409.506	10.66
409.86	11.03
410.215	11.5
410.57	11.96
410.924	12.47
411.279	12.98
411.633	13.38
411.987	13.94
412.342	14.47
412.696	14.88
413.05	15.46
413.404	16.03
413.758	16.82
414.113	17.2
414.467	17.68
414.821	18.3
415.175	18.96
415.529	19.73
415.882	20.36
416.236	21.03
416.59	21.65
416.944	22.4
417.298	23.09
417.651	23.67
418.005	24.27
418.358	25.01
418.712	25.79
419.065	26.38
419.419	26.97
419.772	27.57
420.126	28.17
420.479	28.94
420.832	29.52
421.185	30.05
421.539	30.62
421.892	31.2
422.245	31.81
422.598	32.23
422.951	32.98
423.304	33.62
423.657	34.2
424.01	34.82
424.363	35.46
424.715	36.2
425.068	36.96
425.421	37.75
425.773	38.41
426.126	39.07
426.479	39.81
426.831	40.44
427.184	40.92
427.536	41.47
427.889	42.1
428.241	42.79
428.593	43.37
428.945	44.06
429.298	44.64
429.65	45.24
430.002	45.81
430.354	46.33
430.706	46.77
431.058	47.33
431.41	48.06
431.762	48.6
432.114	49.15
432.466	49.57
432.817	50.08
433.169	50.56
433.521	51.07
433.872	51.55
434.224	51.9
434.576	52.32
434.927	52.81
435.279	53.16
435.63	53.68
435.981	54.28
436.333	54.72
436.684	55.14
437.035	55.46
437.387	55.74
437.738	55.94
438.089	56.2
438.44	56.66
438.791	56.98
439.142	57.27
439.493	57.75
439.844	57.89
440.195	58.08
440.545	58.35
440.896	58.72
441.247	59.06
441.598	59.22
441.948	59.42
442.299	59.66
442.649	59.85
443	60.03
443.35	60.23
443.701	60.2
444.051	60.44
444.401	60.51
444.752	60.45
445.102	60.63
445.452	60.7
445.802	60.82
446.152	61.04
446.502	61.19
446.852	61.35
447.202	61.33
447.552	61.59
447.902	61.84
448.252	61.91
448.602	62.6
448.952	62.78
449.301	62.77
449.651	62.85
450.001	62.95
450.35	63.12
450.7	63.23
451.049	63.34
451.399	63.45
451.748	63.56
452.097	63.67
452.447	63.81
452.796	64.03
453.145	64.16
453.494	64.41
453.843	64.1
454.193	64.18
454.542	64.27
454.891	64.28
455.239	64.25
455.588	64.11
455.937	64.26
456.286	64.2
456.635	64.19
456.984	64.15
457.332	63.62
457.681	63.57
458.03	63.44
458.378	63.3
458.727	63.54
459.075	63.44
459.423	63.65
459.772	63.61
460.12	63.47
460.468	63.42
460.817	63.3
461.165	63.16
461.513	62.97
461.861	62.92
462.209	62.73
462.557	62.96
462.905	63.01
463.253	63.01
463.601	62.92
463.949	63.02
464.297	63.03
464.644	63.01
464.992	62.99
465.34	62.92
465.687	63.03
466.035	62.96
466.383	62.97
466.73	63.2
467.078	63.16
467.425	62.95
467.772	63.02
468.12	62.83
468.467	62.65
468.814	62.73
469.161	62.88
469.508	62.79
469.856	62.91
470.203	62.76
470.55	62.79
470.897	62.67
471.243	62.69
471.59	62.45
471.937	62.29
472.284	62.35
472.631	62.33
472.977	62.2
473.324	62.12
473.671	61.86
474.017	61.86
474.364	61.61
474.71	61.47
475.057	61.2
475.403	60.97
475.749	60.9
476.096	60.77
476.442	60.66
476.788	60.52
477.134	60.51
477.48	60.34
477.826	59.97
478.172	59.93
478.518	59.71
478.864	59.6
479.21	59.44
479.556	59.41
479.902	59.16
480.248	59.06
480.593	58.87
480.939	58.79
481.285	58.58
481.63	58.68
481.976	58.49
482.321	58.38
482.667	58.17
483.012	58.13
483.357	58.02
483.703	57.82
484.048	57.81
484.393	57.59
484.738	57.61
485.084	57.53
485.429	57.41
485.774	57.3
486.119	57.21
486.464	57.14
486.808	56.99
487.153	56.88
487.498	56.83
487.843	56.65
488.188	56.53
488.532	56.55
488.877	56.41
489.222	56.44
489.566	56.26
489.911	56.2
490.255	55.97
490.6	55.88
490.944	55.74
491.288	55.62
491.633	55.48
491.977	55.32
492.321	55.35
492.665	55.06
493.009	55.02
493.353	54.92
493.697	54.73
494.041	54.63
494.385	54.53
494.729	54.35
495.073	54.24
495.417	54.09
495.76	53.95
496.104	53.73
496.448	53.63
496.791	53.47
497.135	53.17
497.479	53.02
497.822	52.84
498.165	52.66
498.509	52.45
498.852	52.2
499.196	52.12
499.539	52.06
499.882	51.83
500.225	51.61
500.568	51.42
500.911	51.27
501.254	51.26
501.597	51.29
501.94	50.96
502.283	50.83
502.626	50.69
502.969	50.47
503.312	50.33
503.654	50.18
503.997	49.91
504.34	49.77
504.682	49.69
505.025	49.55
505.367	49.39
505.71	49.19
506.052	49.03
506.395	48.87
506.737	48.72
507.079	48.6
507.421	48.51
507.764	48.35
508.106	48.3
508.448	48.23
508.79	48.16
509.132	48.12
509.474	47.99
509.816	47.63
510.158	47.33
510.499	47.26
510.841	47.18
511.183	47.08
511.525	46.93
511.866	46.97
512.208	46.82
512.549	46.86
512.891	46.76
513.232	46.64
513.574	46.51
513.915	46.35
514.256	46.35
514.598	46.38
514.939	46.16
515.28	45.98
515.621	45.94
515.962	45.85
516.303	45.77
516.644	45.51
516.985	45.44
517.326	45.19
517.667	45.17
518.008	44.95
518.349	45.13
518.69	45.12
519.03	44.93
519.371	44.86
519.712	44.65
520.052	44.55
520.393	44.25
520.733	44.27
521.074	44.05
521.414	43.93
521.754	43.82
522.095	43.81
522.435	43.71
522.775	43.71
523.115	43.55
523.455	43.43
523.795	43.42
524.135	43.22
524.475	43
524.815	42.71
525.155	42.76
525.495	42.54
525.835	42.51
526.175	42.37
526.514	42.25
526.854	41.98
527.194	41.8
527.533	41.74
527.873	41.5
528.212	41.42
528.552	41.37
528.891	41.42
529.23	41.27
529.57	41.29
529.909	41.02
530.248	40.95
530.587	40.72
530.927	40.74
531.266	40.55
531.605	40.41
531.944	40.35
532.283	40.33
532.621	40.26
532.96	40.28
533.299	40.29
533.638	40.2
533.977	40.28
534.315	40.22
534.654	40.03
534.992	40.11
535.331	40.01
535.67	39.8
536.008	39.74
536.346	39.6
536.685	39.51
537.023	39.32
537.361	39.12
537.7	39.04
538.038	38.95
538.376	38.98
538.714	38.86
539.052	39.04
539.39	38.93
539.728	38.71
540.066	38.61
540.404	38.61
540.741	38.38
541.079	38.33
541.417	38.35
541.755	38.19
542.092	38.17
542.43	38.13
542.767	37.96
543.105	37.96
543.442	37.79
543.78	37.77
544.117	37.81
544.454	37.69
544.792	37.76
545.129	37.65
545.466	37.68
545.803	37.74
546.14	37.74
546.477	37.62
546.814	37.79
547.151	37.69
547.488	37.46
547.825	37.29
548.162	37.48
548.499	37.43
548.835	37.5
549.172	37.56
549.509	37.47
549.845	37.37
550.182	37.38
550.518	37.11
550.855	37.01
551.191	37.23
551.528	37.14
551.864	37.21
552.2	37.35
552.537	37.39
552.873	37.36
553.209	37.32
553.545	37.32
553.881	37.45
554.217	37.34
554.553	37.38
554.889	37.42
555.225	37.29
555.561	37.3
555.896	37.4
556.232	37.67
556.568	37.67
556.903	37.71
557.239	37.58
557.575	37.65
557.91	37.63
558.245	37.7
558.581	37.86
558.916	37.94
559.252	38.02
559.587	37.91
559.922	38.06
560.257	38.21
560.592	38.24
560.928	38.22
561.263	38.41
561.598	38.47
561.933	38.55
562.267	38.68
562.602	38.74
562.937	38.61
563.272	38.85
563.607	38.81
563.941	38.84
564.276	38.73
564.611	38.55
564.945	38.46
565.28	38.4
565.614	38.56
565.949	38.51
566.283	38.64
566.617	38.76
566.951	38.76
567.286	39.03
567.62	38.94
567.954	39.22
568.288	39.3
568.622	39.27
568.956	39.28
569.29	39.34
569.624	39.27
569.958	39.3
570.292	39.41
570.626	39.37
570.959	39.5
571.293	39.62
571.627	39.52
571.96	39.65
572.294	39.8
572.627	39.88
572.961	40.06
573.294	40.16
573.627	40.35
573.961	40.35
574.294	40.5
574.627	40.54
574.961	40.52
575.294	40.46
575.627	40.32
575.96	40.36
576.293	40.21
576.626	40.18
576.959	40.23
577.292	40.33
577.624	40.39
577.957	40.39
578.29	40.45
578.623	40.58
578.955	40.61
579.288	40.71
579.62	40.77
579.953	40.98
580.285	41.1
580.618	41.18
580.95	41.15
581.282	41.19
581.615	41.21
581.947	41.24
582.279	41.26
582.611	41.23
582.943	41.31
583.275	41.36
583.607	41.58
583.939	41.78
584.271	42
584.603	42.13
584.935	42.28
585.267	42.36
585.598	42.29
585.93	42.31
586.262	42.56
586.593	42.74
586.925	42.86
587.256	42.92
587.588	42.87
587.919	42.94
588.25	42.93
588.582	42.94
588.913	42.92
589.244	43.16
589.575	43.3
589.907	43.52
590.238	43.6
590.569	43.83
590.9	44.08
591.231	44.1
591.562	44.3
591.892	44.26
592.223	44.29
592.554	44.39
592.885	44.51
593.215	44.69
593.546	44.68
593.877	44.77
594.207	44.99
594.538	45.15
594.868	45.21
595.198	45.23
595.529	45.35
595.859	45.46
596.189	45.55
596.52	45.6
596.85	45.66
597.18	45.88
597.51	45.96
597.84	46
598.17	46.09
598.5	46.33
598.83	46.49
599.16	46.72
599.489	46.9
599.819	47.06
600.149	47.43
600.479	47.79
600.808	48.01
601.138	48.19
601.467	48.36
601.797	48.68
602.126	49.08
602.456	49.34
602.785	49.54
603.114	49.72
603.443	49.83
603.773	50.18
604.102	50.4
604.431	50.77
604.76	51.19
605.089	51.42
605.418	51.44
605.747	51.83
606.076	52.07
606.405	52.33
606.733	52.45
607.062	52.67
607.391	52.7
607.72	53.09
608.048	53.24
608.377	53.46
608.705	53.64
609.034	53.85
609.362	54.21
609.69	54.52
610.019	54.89
610.347	55
610.675	55.08
611.004	55.14
611.332	55.28
611.66	55.59
611.988	55.76
612.316	55.94
612.644	55.91
612.972	55.88
613.3	56.22
613.627	56.56
613.955	56.58
614.283	56.88
614.611	57.02
614.938	57.2
615.266	57.49
615.593	57.71
615.921	57.88
616.248	58.25
616.576	58.6
616.903	58.94
617.23	59.09
617.558	59.63
617.885	59.74
618.212	59.91
618.539	60.41
618.866	60.68
619.193	60.87
619.52	61.04
619.847	61.32
620.174	61.54
620.501	61.95
620.828	62.18
621.155	62.61
621.481	62.67
621.808	62.94
622.135	63.28
622.461	63.4
622.788	63.25
623.114	63.63
623.441	63.57
623.767	63.74
624.093	64.01
624.42	64.32
624.746	64.61
625.072	64.59
625.398	64.76
625.725	64.48
626.051	64.63
626.377	65.07
626.703	64.86
627.029	64.9
627.354	65.3
627.68	65.74
628.006	66.01
628.332	66.16
628.658	66.16
628.983	66.56
629.309	66.6
629.634	66.98
629.96	67.3
630.285	67.8
630.611	67.9
630.936	68.24
631.262	68.12
631.587	68.3
631.912	68.82
632.237	69.38
632.562	69.53
632.887	68.77
633.213	69.17
633.538	69.86
633.863	70.57
634.187	70.52
634.512	70.35
634.837	70.69
635.162	70.49
635.487	70.26
635.811	70.36
636.136	70.32
636.461	70.42
636.785	70.42
637.11	70.89
637.434	70.13
637.758	70.61
638.083	70.32
638.407	69.71
638.731	69.5
639.056	70.48
639.38	70.15
639.704	70.44
640.028	70.51
640.352	70.16
640.676	69.7
641	70.99
641.324	70.15
641.648	69.58
641.972	69.18
642.295	70.27
642.619	69.88
642.943	69.64
643.266	70.08
643.59	70.46
643.913	70.22
644.237	69.95
644.56	69.82
644.884	70.33
645.207	70.46
645.53	71.4
645.854	70.61
646.177	70.59
646.5	70.93
646.823	71.22
647.146	70.54
647.469	71.3
647.792	71.78
648.115	71.22
648.438	71.42
648.761	73.54
649.084	74.28
649.406	74.91
649.729	73.92
650.052	73.46
650.374	73.34
650.697	73.6
651.019	73.75
651.342	73.91
651.664	73.88
651.987	73.9
652.309	74.19
652.631	74.36
652.953	74.35
653.276	74.07
653.598	74.21
653.92	74.2
654.242	74.45
654.564	74.58
654.886	74.63
655.208	74.73
655.53	74.44
655.851	74.33
656.173	74.52
656.495	74.62
656.816	73.97
657.138	73.15
657.46	72.52
657.781	74.6
