Data from T2_Reflection__96__01-38-12-840.txt Node

Date: Fri Jun 04 01:38:12 CEST 2021
User: mabdelazizm
Spectrometer: FLMS18565
Trigger mode: 0
Integration Time (sec): 2.000000E0
Scans to average: 1
Electric dark correction enabled: true
Nonlinearity correction enabled: false
Boxcar width: 12
XAxis mode: Wavelengths
Number of Pixels in Spectrum: 2048
>>>>>Begin Spectral Data<<<<<
179.071	-2.24
179.452	-77.22
179.833	97.6
180.214	2000
180.595	170.66
180.977	117.73
181.358	-740.82
181.739	378.79
182.12	100.63
182.501	51.71
182.882	57.72
183.262	39.64
183.643	40.59
184.024	5.85
184.405	-19.06
184.786	-17.1
185.166	11.64
185.547	6.02
185.927	12.35
186.308	6.87
186.689	21.42
187.069	12.04
187.449	17.61
187.83	19.08
188.21	16.2
188.59	17.86
188.971	18.88
189.351	29.96
189.731	29.68
190.111	34.37
190.491	31.02
190.871	25.54
191.251	27.66
191.631	31.18
192.011	31.48
192.391	27.62
192.771	31.58
193.151	32.7
193.531	30.68
193.91	36.24
194.29	34.85
194.67	37.95
195.049	41.08
195.429	41.52
195.808	46.43
196.188	40.31
196.567	40.7
196.946	41.15
197.326	39.39
197.705	39.34
198.084	39.93
198.464	37.51
198.843	35.54
199.222	35.55
199.601	32.88
199.98	32.13
200.359	32.3
200.738	31.99
201.117	30.71
201.496	29.11
201.875	29.64
202.254	26.44
202.632	25.52
203.011	29.15
203.39	25.79
203.768	27.7
204.147	23.73
204.525	22.09
204.904	22.31
205.282	20.35
205.661	20.51
206.039	21.24
206.418	20.56
206.796	19.87
207.174	23.39
207.552	24.7
207.931	22.83
208.309	21.36
208.687	21.45
209.065	21.27
209.443	23.04
209.821	25.1
210.199	24.01
210.577	22.17
210.954	22.3
211.332	21.67
211.71	22.7
212.088	20.34
212.465	21.41
212.843	23.1
213.221	20.43
213.598	22.27
213.976	21.61
214.353	21.97
214.731	19.59
215.108	21.46
215.485	19.94
215.863	17.76
216.24	16.65
216.617	14.8
216.994	14.07
217.371	15.77
217.749	15.87
218.126	14.14
218.503	13.8
218.88	12.29
219.256	10.6
219.633	8.63
220.01	8.55
220.387	9.26
220.764	9.64
221.14	9.46
221.517	9.97
221.894	8.38
222.27	6.91
222.647	6.68
223.023	5.38
223.4	5.56
223.776	4.69
224.153	5
224.529	4.5
224.905	4.43
225.282	5.21
225.658	4.94
226.034	3.88
226.41	3.67
226.786	3.23
227.162	3.75
227.538	3.94
227.914	3.45
228.29	3.21
228.666	2.86
229.042	3.19
229.418	3.19
229.793	2.82
230.169	2.69
230.545	2.41
230.92	2.5
231.296	2.69
231.672	2.92
232.047	2.93
232.422	2.9
232.798	2.9
233.173	2.88
233.549	2.94
233.924	2.99
234.299	3.24
234.674	3.21
235.05	3.44
235.425	3.31
235.8	3.3
236.175	3.41
236.55	3.07
236.925	3.09
237.3	3.07
237.675	3
238.049	2.95
238.424	3.15
238.799	3.17
239.174	3.37
239.548	3.64
239.923	3.52
240.297	3.39
240.672	3.24
241.046	3.07
241.421	2.98
241.795	2.98
242.17	2.93
242.544	2.79
242.918	2.8
243.293	2.78
243.667	2.77
244.041	2.75
244.415	2.77
244.789	2.9
245.163	2.83
245.537	2.8
245.911	2.83
246.285	2.82
246.659	2.82
247.033	2.89
247.406	2.95
247.78	2.9
248.154	2.84
248.528	2.76
248.901	2.62
249.275	2.71
249.648	2.74
250.022	2.77
250.395	2.8
250.769	2.91
251.142	2.95
251.515	2.98
251.888	3.1
252.262	3.09
252.635	3.1
253.008	3.05
253.381	2.96
253.754	2.81
254.127	2.87
254.5	2.86
254.873	2.84
255.246	2.83
255.619	2.83
255.992	2.86
256.364	2.81
256.737	2.78
257.11	2.79
257.483	2.72
257.855	2.7
258.228	2.64
258.6	2.61
258.973	2.6
259.345	2.57
259.718	2.55
260.09	2.46
260.462	2.41
260.834	2.35
261.207	2.24
261.579	2.26
261.951	2.26
262.323	2.25
262.695	2.25
263.067	2.35
263.439	2.3
263.811	2.32
264.183	2.28
264.555	2.35
264.927	2.36
265.298	2.41
265.67	2.35
266.042	2.34
266.413	2.23
266.785	2.3
267.156	2.3
267.528	2.28
267.899	2.28
268.271	2.29
268.642	2.32
269.013	2.42
269.385	2.46
269.756	2.44
270.127	2.45
270.498	2.51
270.87	2.47
271.241	2.45
271.612	2.4
271.983	2.41
272.354	2.38
272.724	2.33
273.095	2.38
273.466	2.35
273.837	2.3
274.208	2.28
274.578	2.21
274.949	2.23
275.32	2.2
275.69	2.22
276.061	2.2
276.431	2.2
276.802	2.23
277.172	2.23
277.542	2.1
277.913	2.06
278.283	1.95
278.653	1.9
279.023	1.89
279.394	1.93
279.764	1.88
280.134	1.92
280.504	1.89
280.874	1.94
281.244	1.91
281.614	1.92
281.983	1.89
282.353	1.76
282.723	1.71
283.093	1.68
283.462	1.72
283.832	1.68
284.202	1.71
284.571	1.68
284.941	1.72
285.31	1.77
285.68	1.81
286.049	1.81
286.418	1.76
286.788	1.95
287.157	1.93
287.526	1.94
287.895	1.89
288.264	1.92
288.633	1.82
289.002	1.85
289.371	1.77
289.74	1.78
290.109	1.72
290.478	1.78
290.847	1.78
291.216	1.79
291.585	1.82
291.953	1.88
292.322	1.94
292.691	1.86
293.059	1.86
293.428	1.8
293.796	1.8
294.165	1.78
294.533	1.74
294.901	1.76
295.27	1.76
295.638	1.87
296.006	1.76
296.374	1.75
296.743	1.73
297.111	1.88
297.479	1.81
297.847	1.85
298.215	1.75
298.583	1.7
298.95	1.64
299.318	1.65
299.686	1.53
300.054	1.44
300.422	1.44
300.789	1.45
301.157	1.42
301.525	1.36
301.892	1.41
302.26	1.47
302.627	1.48
302.994	1.45
303.362	1.42
303.729	1.43
304.097	1.31
304.464	1.25
304.831	1.1
305.198	1.09
305.565	1.03
305.932	1.02
306.299	0.94
306.666	1.02
307.033	0.98
307.4	1
307.767	0.94
308.134	0.97
308.501	0.98
308.867	0.99
309.234	1
309.601	0.98
309.967	0.93
310.334	0.95
310.701	0.9
311.067	0.87
311.433	0.85
311.8	0.9
312.166	0.92
312.533	0.92
312.899	0.9
313.265	0.92
313.631	0.9
313.997	0.91
314.363	0.83
314.729	0.83
315.096	0.85
315.461	0.81
315.827	0.73
316.193	0.75
316.559	0.71
316.925	0.84
317.291	0.82
317.656	0.8
318.022	0.89
318.388	0.81
318.753	0.85
319.119	0.92
319.484	0.94
319.85	0.91
320.215	0.97
320.581	0.94
320.946	0.94
321.311	0.91
321.676	0.85
322.042	0.83
322.407	0.77
322.772	0.77
323.137	0.76
323.502	0.8
323.867	0.83
324.232	0.78
324.597	0.85
324.962	0.93
325.327	0.97
325.691	1.09
326.056	1.05
326.421	1.03
326.785	0.99
327.15	0.91
327.514	1.01
327.879	1
328.243	0.97
328.608	0.97
328.972	1.03
329.337	0.94
329.701	0.9
330.065	0.89
330.429	0.93
330.794	0.95
331.158	0.98
331.522	1.09
331.886	1.13
332.25	1.13
332.614	1.24
332.978	1.27
333.342	1.36
333.705	1.32
334.069	1.37
334.433	1.32
334.797	1.22
335.16	1.23
335.524	1.25
335.887	1.22
336.251	1.15
336.614	1.14
336.978	1.16
337.341	1.13
337.705	1.09
338.068	1.13
338.431	1.1
338.794	1.09
339.158	1.05
339.521	1.01
339.884	1.06
340.247	0.95
340.61	0.94
340.973	0.89
341.336	0.95
341.699	0.87
342.062	0.81
342.424	0.65
342.787	0.62
343.15	0.44
343.512	0.49
343.875	0.57
344.238	0.54
344.6	0.47
344.963	0.54
345.325	0.59
345.688	0.62
346.05	0.55
346.412	0.58
346.775	0.63
347.137	0.6
347.499	0.64
347.861	0.67
348.223	0.79
348.585	0.82
348.947	0.74
349.309	0.81
349.671	0.71
350.033	0.83
350.395	0.75
350.757	0.85
351.118	0.89
351.48	1.02
351.842	0.95
352.203	1.01
352.565	0.96
352.927	0.91
353.288	1.03
353.65	1.09
354.011	1.05
354.372	1.06
354.734	1.04
355.095	1.08
355.456	1.07
355.817	1.03
356.179	1
356.54	0.97
356.901	0.99
357.262	0.92
357.623	0.89
357.984	0.97
358.345	0.97
358.705	1
359.066	0.89
359.427	1.01
359.788	0.95
360.148	0.93
360.509	0.9
360.87	0.93
361.23	0.94
361.591	0.93
361.951	1.04
362.312	1.03
362.672	1.08
363.032	1.04
363.393	1.06
363.753	1.06
364.113	1.05
364.473	1.13
364.833	1.12
365.193	1.13
365.553	1.18
365.913	1.16
366.273	1.15
366.633	1.14
366.993	1.09
367.353	1.04
367.713	1.09
368.072	1.14
368.432	1.01
368.792	0.98
369.151	1.01
369.511	0.94
369.87	0.97
370.23	1.02
370.589	1.03
370.949	0.95
371.308	0.92
371.667	0.91
372.027	0.92
372.386	0.92
372.745	0.94
373.104	0.92
373.463	0.88
373.822	0.89
374.181	0.88
374.54	0.82
374.899	0.88
375.258	0.91
375.617	0.94
375.975	0.96
376.334	1.01
376.693	1.07
377.052	1.08
377.41	1.14
377.769	1.13
378.127	1.13
378.486	1.21
378.844	1.33
379.202	1.35
379.561	1.29
379.919	1.19
380.277	1.13
380.636	1.08
380.994	1.09
381.352	1.1
381.71	1.07
382.068	1.11
382.426	1
382.784	1.1
383.142	1.1
383.5	1.19
383.857	1.24
384.215	1.2
384.573	1.22
384.931	1.2
385.288	1.26
385.646	1.21
386.003	1.2
386.361	1.26
386.718	1.24
387.076	1.15
387.433	1.06
387.791	0.94
388.148	0.89
388.505	0.97
388.862	1.06
389.22	1.14
389.577	1.11
389.934	1.13
390.291	1.12
390.648	1.11
391.005	1.25
391.362	1.37
391.718	1.33
392.075	1.32
392.432	1.28
392.789	1.22
393.145	1.23
393.502	1.26
393.859	1.22
394.215	1.09
394.572	1.09
394.928	1.15
395.285	1.03
395.641	1.07
395.997	1.18
396.354	1.31
396.71	1.4
397.066	1.38
397.422	1.46
397.778	1.57
398.134	1.56
398.491	1.66
398.846	1.8
399.202	1.98
399.558	2.14
399.914	2.02
400.27	1.96
400.626	1.99
400.981	2.09
401.337	2.19
401.693	2.29
402.048	2.38
402.404	2.42
402.759	2.65
403.115	2.81
403.47	2.91
403.826	3.05
404.181	3.26
404.536	3.41
404.892	3.52
405.247	3.73
405.602	3.96
405.957	4.25
406.312	4.46
406.667	4.56
407.022	4.89
407.377	5.19
407.732	5.49
408.087	5.65
408.442	5.9
408.796	6.28
409.151	6.68
409.506	7.13
409.86	7.45
410.215	7.88
410.57	8.3
410.924	8.71
411.279	9.06
411.633	9.44
411.987	9.97
412.342	10.38
412.696	10.75
413.05	11.26
413.404	11.78
413.758	12.4
414.113	12.88
414.467	13.38
414.821	13.94
415.175	14.47
415.529	15.13
415.882	15.69
416.236	16.15
416.59	16.59
416.944	17.2
417.298	17.84
417.651	18.25
418.005	18.82
418.358	19.41
418.712	20.03
419.065	20.44
419.419	21.02
419.772	21.63
420.126	22.31
420.479	22.88
420.832	23.43
421.185	23.99
421.539	24.56
421.892	25.04
422.245	25.6
422.598	26.06
422.951	26.62
423.304	27.1
423.657	27.65
424.01	28.17
424.363	28.77
424.715	29.24
425.068	30.01
425.421	30.67
425.773	31.22
426.126	31.74
426.479	32.49
426.831	32.99
427.184	33.44
427.536	33.96
427.889	34.55
428.241	35.17
428.593	35.7
428.945	36.11
429.298	36.69
429.65	37.18
430.002	37.73
430.354	38.31
430.706	38.8
431.058	39.15
431.41	39.64
431.762	40.06
432.114	40.38
432.466	40.84
432.817	41.33
433.169	41.58
433.521	42.13
433.872	42.38
434.224	42.63
434.576	43.04
434.927	43.36
435.279	43.61
435.63	44.01
435.981	44.34
436.333	44.73
436.684	44.92
437.035	44.93
437.387	45.06
437.738	45.32
438.089	45.36
438.44	45.57
438.791	45.8
439.142	45.95
439.493	46.25
439.844	46.54
440.195	46.76
440.545	46.83
440.896	47.09
441.247	47.18
441.598	47.17
441.948	47.43
442.299	47.52
442.649	47.6
443	47.81
443.35	47.9
443.701	47.91
444.051	47.99
444.401	48.2
444.752	48.26
445.102	48.27
445.452	48.28
445.802	48.45
446.152	48.69
446.502	48.9
446.852	49.02
447.202	49.08
447.552	49.24
447.902	49.34
448.252	49.42
448.602	49.92
448.952	49.97
449.301	50.06
449.651	50.09
450.001	50.03
450.35	50.18
450.7	50.21
451.049	50.3
451.399	50.54
451.748	50.56
452.097	50.61
452.447	50.62
452.796	50.76
453.145	50.73
453.494	50.78
453.843	50.64
454.193	50.84
454.542	50.85
454.891	50.66
455.239	50.55
455.588	50.57
455.937	50.59
456.286	50.44
456.635	50.38
456.984	50.29
457.332	49.77
457.681	49.67
458.03	49.6
458.378	49.73
458.727	49.83
459.075	49.75
459.423	49.87
459.772	49.87
460.12	49.6
460.468	49.61
460.817	49.56
461.165	49.48
461.513	49.36
461.861	49.32
462.209	49.19
462.557	49.31
462.905	49.37
463.253	49.31
463.601	49.39
463.949	49.41
464.297	49.19
464.644	49.23
464.992	49.25
465.34	49.29
465.687	49.2
466.035	49.08
466.383	49.09
466.73	49.21
467.078	48.99
467.425	48.96
467.772	48.97
468.12	48.73
468.467	48.55
468.814	48.66
469.161	48.4
469.508	48.3
469.856	48.28
470.203	48.07
470.55	47.86
470.897	47.65
471.243	47.6
471.59	47.31
471.937	47.12
472.284	47.01
472.631	46.82
472.977	46.84
473.324	46.64
473.671	46.56
474.017	46.34
474.364	46.36
474.71	46.11
475.057	45.98
475.403	45.74
475.749	45.68
476.096	45.48
476.442	45.22
476.788	44.96
477.134	44.81
477.48	44.56
477.826	44.36
478.172	44.2
478.518	44.16
478.864	44.12
479.21	44.04
479.556	44.02
479.902	43.79
480.248	43.67
480.593	43.5
480.939	43.32
481.285	43.22
481.63	43.15
481.976	42.9
482.321	42.68
482.667	42.5
483.012	42.29
483.357	42.33
483.703	42.18
484.048	42.02
484.393	41.77
484.738	41.71
485.084	41.61
485.429	41.6
485.774	41.48
486.119	41.32
486.464	41.32
486.808	41.21
487.153	40.87
487.498	40.66
487.843	40.39
488.188	40.24
488.532	40.04
488.877	39.82
489.222	39.7
489.566	39.55
489.911	39.4
490.255	39.15
490.6	39.04
490.944	38.84
491.288	38.66
491.633	38.47
491.977	38.12
492.321	37.91
492.665	37.75
493.009	37.62
493.353	37.28
493.697	37.17
494.041	36.98
494.385	36.86
494.729	36.69
495.073	36.49
495.417	36.26
495.76	36.15
496.104	36.05
496.448	35.99
496.791	35.79
497.135	35.61
497.479	35.52
497.822	35.33
498.165	35.1
498.509	34.82
498.852	34.67
499.196	34.49
499.539	34.34
499.882	34.23
500.225	34.02
500.568	33.89
500.911	33.67
501.254	33.53
501.597	33.47
501.94	33.38
502.283	33.23
502.626	33.03
502.969	32.73
503.312	32.54
503.654	32.37
503.997	32.24
504.34	32.17
504.682	31.92
505.025	31.74
505.367	31.6
505.71	31.37
506.052	31.12
506.395	30.98
506.737	30.97
507.079	30.81
507.421	30.64
507.764	30.45
508.106	30.3
508.448	30.1
508.79	30.02
509.132	29.93
509.474	29.83
509.816	29.67
510.158	29.38
510.499	29.3
510.841	29.07
511.183	28.96
511.525	28.83
511.866	28.71
512.208	28.57
512.549	28.44
512.891	28.35
513.232	28.41
513.574	28.23
513.915	28.05
514.256	27.99
514.598	27.99
514.939	27.88
515.28	27.53
515.621	27.47
515.962	27.25
516.303	27.25
516.644	27.2
516.985	27.17
517.326	26.96
517.667	26.74
518.008	26.62
518.349	26.57
518.69	26.59
519.03	26.44
519.371	26.43
519.712	26.33
520.052	26.33
520.393	26.25
520.733	26.24
521.074	26.08
521.414	25.79
521.754	25.5
522.095	25.4
522.435	25.25
522.775	25.13
523.115	25.02
523.455	24.95
523.795	25.04
524.135	24.99
524.475	24.95
524.815	24.76
525.155	24.63
525.495	24.42
525.835	24.37
526.175	24.5
526.514	24.49
526.854	24.36
527.194	24.18
527.533	24.07
527.873	23.88
528.212	23.74
528.552	23.72
528.891	23.63
529.23	23.39
529.57	23.27
529.909	23.3
530.248	23.23
530.587	23.2
530.927	23.08
531.266	22.97
531.605	22.7
531.944	22.53
532.283	22.33
532.621	22.1
532.96	22.05
533.299	21.88
533.638	21.7
533.977	21.69
534.315	21.63
534.654	21.38
534.992	21.3
535.331	21.1
535.67	20.99
536.008	20.92
536.346	20.83
536.685	20.76
537.023	20.56
537.361	20.38
537.7	20.22
538.038	20.21
538.376	20.03
538.714	19.93
539.052	19.88
539.39	19.93
539.728	19.94
540.066	19.97
540.404	19.87
540.741	19.74
541.079	19.66
541.417	19.67
541.755	19.73
542.092	19.71
542.43	19.65
542.767	19.6
543.105	19.55
543.442	19.35
543.78	19.45
544.117	19.44
544.454	19.39
544.792	19.37
545.129	19.3
545.466	19.21
545.803	19.31
546.14	19.53
546.477	19.39
546.814	19.4
547.151	19.43
547.488	19.31
547.825	19.23
548.162	19.24
548.499	19.19
548.835	19.21
549.172	19.21
549.509	19.25
549.845	19
550.182	18.89
550.518	18.89
550.855	18.95
551.191	18.95
551.528	18.91
551.864	19.14
552.2	19.02
552.537	19.11
552.873	19.09
553.209	19.07
553.545	18.99
553.881	19.15
554.217	19.18
554.553	19.09
554.889	19.22
555.225	19.27
555.561	19.26
555.896	19.36
556.232	19.33
556.568	19.32
556.903	19.42
557.239	19.5
557.575	19.58
557.91	19.63
558.245	19.82
558.581	19.87
558.916	19.9
559.252	19.75
559.587	19.63
559.922	19.75
560.257	19.58
560.592	19.74
560.928	19.72
561.263	19.77
561.598	19.72
561.933	19.66
562.267	19.76
562.602	19.72
562.937	19.7
563.272	19.8
563.607	19.8
563.941	19.71
564.276	19.75
564.611	19.76
564.945	19.7
565.28	19.7
565.614	19.68
565.949	19.64
566.283	19.67
566.617	19.66
566.951	19.68
567.286	19.74
567.62	19.8
567.954	19.86
568.288	19.82
568.622	19.93
568.956	19.88
569.29	19.91
569.624	19.99
569.958	20.16
570.292	20.32
570.626	20.27
570.959	20.32
571.293	20.36
571.627	20.4
571.96	20.5
572.294	20.64
572.627	20.66
572.961	20.76
573.294	20.93
573.627	21.1
573.961	21.15
574.294	21.22
574.627	21.34
574.961	21.5
575.294	21.55
575.627	21.43
575.96	21.49
576.293	21.53
576.626	21.56
576.959	21.58
577.292	21.71
577.624	21.74
577.957	21.69
578.29	21.72
578.623	21.83
578.955	21.93
579.288	22.06
579.62	22.13
579.953	22.19
580.285	22.19
580.618	22.29
580.95	22.28
581.282	22.28
581.615	22.3
581.947	22.32
582.279	22.39
582.611	22.4
582.943	22.49
583.275	22.53
583.607	22.67
583.939	22.91
584.271	22.98
584.603	23.15
584.935	23.34
585.267	23.45
585.598	23.45
585.93	23.56
586.262	23.68
586.593	23.71
586.925	23.75
587.256	23.78
587.588	23.77
587.919	23.89
588.25	23.9
588.582	23.97
588.913	23.97
589.244	24.14
589.575	24.39
589.907	24.41
590.238	24.46
590.569	24.64
590.9	24.91
591.231	24.98
591.562	25.07
591.892	25.14
592.223	25.32
592.554	25.62
592.885	25.72
593.215	25.8
593.546	25.91
593.877	26.06
594.207	26.34
594.538	26.57
594.868	26.81
595.198	26.96
595.529	27.07
595.859	27.23
596.189	27.28
596.52	27.41
596.85	27.5
597.18	27.67
597.51	27.74
597.84	27.71
598.17	27.84
598.5	27.97
598.83	28.14
599.16	28.4
599.489	28.49
599.819	28.7
600.149	28.91
600.479	29.07
600.808	29.21
601.138	29.44
601.467	29.65
601.797	29.85
602.126	30.17
602.456	30.38
602.785	30.51
603.114	30.67
603.443	30.93
603.773	31.32
604.102	31.59
604.431	32.03
604.76	32.41
605.089	32.78
605.418	33.01
605.747	33.38
606.076	33.74
606.405	34.14
606.733	34.53
607.062	34.79
607.391	34.89
607.72	35.23
608.048	35.46
608.377	35.75
608.705	36.29
609.034	36.65
609.362	36.94
609.69	37.39
610.019	37.93
610.347	38
610.675	37.98
611.004	38.36
611.332	38.86
611.66	39.16
611.988	39.46
612.316	39.71
612.644	39.71
612.972	39.87
613.3	40.08
613.627	40.25
613.955	40.66
614.283	40.9
614.611	40.94
614.938	41.08
615.266	41.46
615.593	41.88
615.921	42.15
616.248	42.41
616.576	43.05
616.903	43.23
617.23	43.48
617.558	44.09
617.885	44.4
618.212	44.47
618.539	45.28
618.866	45.84
619.193	46.08
619.52	46.14
619.847	46.3
620.174	46.56
620.501	46.86
620.828	47.41
621.155	47.73
621.481	48.14
621.808	48.78
622.135	48.85
622.461	49.3
622.788	49.71
623.114	49.84
623.441	49.67
623.767	49.88
624.093	50.15
624.42	50.59
624.746	50.79
625.072	51.05
625.398	51.28
625.725	51.54
626.051	51.74
626.377	52.59
626.703	52.36
627.029	52.45
627.354	52.77
627.68	53.08
628.006	53.4
628.332	53.8
628.658	54.24
628.983	54.48
629.309	54.49
629.634	54.93
629.96	54.87
630.285	55.27
630.611	54.94
630.936	55.58
631.262	55.76
631.587	56.13
631.912	56.2
632.237	56.91
632.562	57.6
632.887	57.22
633.213	57.36
633.538	58.16
633.863	58.62
634.187	59.01
634.512	58.51
634.837	58.49
635.162	58.19
635.487	58.01
635.811	57.98
636.136	58.44
636.461	58.45
636.785	58.53
637.11	58.97
637.434	58.59
637.758	58.53
638.083	59.03
638.407	59.13
638.731	59.63
639.056	59.97
639.38	60.05
639.704	60.38
640.028	61.02
640.352	60.87
640.676	60.34
641	61.11
641.324	60.97
641.648	60.68
641.972	60.35
642.295	60.58
642.619	60.65
642.943	61
643.266	62.07
643.59	62.58
643.913	62.51
644.237	62.48
644.56	62.23
644.884	62.95
645.207	62.54
645.53	63.33
645.854	63.7
646.177	63.76
646.5	63.82
646.823	63.84
647.146	63.63
647.469	63.99
647.792	64.28
648.115	63.7
648.438	64.41
648.761	66.54
649.084	67.67
649.406	68.13
649.729	67.16
650.052	66.95
650.374	67.15
650.697	67.28
651.019	67.33
651.342	67.36
651.664	67.56
651.987	67.58
652.309	67.72
652.631	67.96
652.953	67.87
653.276	67.83
653.598	68.01
653.92	67.95
654.242	68
654.564	68.18
654.886	68.19
655.208	68.06
655.53	67.88
655.851	67.86
656.173	68.08
656.495	68.1
656.816	67.41
657.138	66.56
657.46	65.94
657.781	67.67
658.103	69.01
658.424	69.5
658.746	69.74
