Data from T2_Reflection__111__01-47-22-822.txt Node

Date: Fri Jun 04 01:47:22 CEST 2021
User: mabdelazizm
Spectrometer: FLMS18565
Trigger mode: 0
Integration Time (sec): 2.000000E0
Scans to average: 1
Electric dark correction enabled: true
Nonlinearity correction enabled: false
Boxcar width: 12
XAxis mode: Wavelengths
Number of Pixels in Spectrum: 2048
>>>>>Begin Spectral Data<<<<<
179.071	-820.63
179.452	-324.89
179.833	-303.79
180.214	-5050
180.595	-188.94
180.977	-389.16
181.358	-3220.41
181.739	1254.55
182.12	299.21
182.501	193.62
182.882	166.4
183.262	133.73
183.643	100.84
184.024	76.05
184.405	45.37
184.786	29.37
185.166	20.5
185.547	19.97
185.927	13.15
186.308	21.3
186.689	26.56
187.069	26.44
187.449	31.41
187.83	24.94
188.21	22.25
188.59	25.37
188.971	26.9
189.351	27.3
189.731	28.75
190.111	31.87
190.491	30.2
190.871	29.98
191.251	28.87
191.631	26.93
192.011	26.72
192.391	23.98
192.771	23.15
193.151	20.22
193.531	20.56
193.91	21.4
194.29	21.9
194.67	24.29
195.049	23.1
195.429	22.19
195.808	20.25
196.188	18.6
196.567	14.3
196.946	14.1
197.326	12.68
197.705	14.09
198.084	11.64
198.464	10.59
198.843	9.12
199.222	10.47
199.601	10.29
199.98	13.57
200.359	15.77
200.738	19.47
201.117	19.04
201.496	20.22
201.875	22.54
202.254	23.83
202.632	22.63
203.011	23.55
203.39	20.78
203.768	19.35
204.147	18.21
204.525	16.13
204.904	15.95
205.282	15.8
205.661	14.41
206.039	15.78
206.418	16.52
206.796	17.97
207.174	19.3
207.552	19.91
207.931	19.64
208.309	19.46
208.687	16.12
209.065	15.48
209.443	13.82
209.821	12.89
210.199	11.44
210.577	10.94
210.954	8.62
211.332	4.69
211.71	6.16
212.088	9.11
212.465	9.65
212.843	11.85
213.221	11.15
213.598	12.24
213.976	12.9
214.353	13.97
214.731	11.7
215.108	14.65
215.485	13.72
215.863	11.28
216.24	8.99
216.617	8.33
216.994	9.39
217.371	11.19
217.749	11.35
218.126	10.27
218.503	9.9
218.88	9.58
219.256	9.79
219.633	9.89
220.01	10.64
220.387	11.84
220.764	12.98
221.14	11.51
221.517	10.96
221.894	10.03
222.27	8.62
222.647	9.18
223.023	7.51
223.4	7.5
223.776	6.6
224.153	7.58
224.529	6.8
224.905	7.12
225.282	7.59
225.658	7.65
226.034	7.04
226.41	6.91
226.786	6.62
227.162	6.54
227.538	6.45
227.914	6.29
228.29	5.58
228.666	4.69
229.042	4.07
229.418	3.76
229.793	3.48
230.169	3.29
230.545	3.37
230.92	2.9
231.296	2.54
231.672	2.38
232.047	2.28
232.422	2.49
232.798	2.39
233.173	2.27
233.549	2.29
233.924	2.31
234.299	2.43
234.674	2.26
235.05	2.43
235.425	2.31
235.8	1.95
236.175	1.78
236.55	1.65
236.925	1.66
237.3	1.59
237.675	1.59
238.049	1.58
238.424	1.72
238.799	1.63
239.174	1.71
239.548	1.74
239.923	1.48
240.297	1.61
240.672	1.62
241.046	1.69
241.421	1.48
241.795	1.49
242.17	1.46
242.544	1.3
242.918	1.29
243.293	1.2
243.667	1.25
244.041	1.22
244.415	1.05
244.789	1.1
245.163	1.18
245.537	1.17
245.911	1.23
246.285	1.26
246.659	1.24
247.033	1.28
247.406	1.42
247.78	1.35
248.154	1.29
248.528	1.24
248.901	1.24
249.275	1.3
249.648	1.34
250.022	1.36
250.395	1.35
250.769	1.4
251.142	1.41
251.515	1.48
251.888	1.62
252.262	1.58
252.635	1.62
253.008	1.56
253.381	1.52
253.754	1.6
254.127	1.66
254.5	1.57
254.873	1.56
255.246	1.55
255.619	1.53
255.992	1.57
256.364	1.53
256.737	1.49
257.11	1.47
257.483	1.43
257.855	1.41
258.228	1.44
258.6	1.48
258.973	1.37
259.345	1.38
259.718	1.37
260.09	1.38
260.462	1.31
260.834	1.21
261.207	1.12
261.579	1.13
261.951	1.12
262.323	1.04
262.695	1.05
263.067	1.04
263.439	1.05
263.811	1.1
264.183	1.07
264.555	1.08
264.927	1.13
265.298	1.07
265.67	0.99
266.042	0.92
266.413	0.88
266.785	0.97
267.156	1
267.528	0.93
267.899	0.89
268.271	0.99
268.642	0.97
269.013	1.02
269.385	1.01
269.756	1.02
270.127	1.05
270.498	1.15
270.87	1.11
271.241	1.05
271.612	1.01
271.983	0.99
272.354	0.9
272.724	0.82
273.095	0.86
273.466	0.86
273.837	0.84
274.208	0.77
274.578	0.74
274.949	0.71
275.32	0.75
275.69	0.73
276.061	0.71
276.431	0.66
276.802	0.68
277.172	0.69
277.542	0.54
277.913	0.53
278.283	0.52
278.653	0.52
279.023	0.53
279.394	0.58
279.764	0.53
280.134	0.52
280.504	0.55
280.874	0.67
281.244	0.74
281.614	0.76
281.983	0.81
282.353	0.75
282.723	0.74
283.093	0.69
283.462	0.78
283.832	0.8
284.202	0.92
284.571	0.92
284.941	1.01
285.31	1.08
285.68	1.11
286.049	1.1
286.418	1.05
286.788	1.17
287.157	1.23
287.526	1.22
287.895	1.17
288.264	1.15
288.633	1.04
289.002	1.08
289.371	1.05
289.74	1.01
290.109	1
290.478	0.96
290.847	1.01
291.216	0.98
291.585	0.99
291.953	1.02
292.322	1.14
292.691	1.02
293.059	1.01
293.428	0.99
293.796	0.96
294.165	0.92
294.533	0.85
294.901	0.89
295.27	0.87
295.638	0.98
296.006	0.92
296.374	0.9
296.743	0.85
297.111	0.98
297.479	0.91
297.847	0.92
298.215	0.88
298.583	0.85
298.95	0.87
299.318	0.81
299.686	0.8
300.054	0.77
300.422	0.77
300.789	0.82
301.157	0.81
301.525	0.63
301.892	0.68
302.26	0.71
302.627	0.72
302.994	0.75
303.362	0.79
303.729	0.8
304.097	0.73
304.464	0.8
304.831	0.76
305.198	0.75
305.565	0.68
305.932	0.65
306.299	0.58
306.666	0.68
307.033	0.67
307.4	0.67
307.767	0.64
308.134	0.68
308.501	0.65
308.867	0.59
309.234	0.56
309.601	0.55
309.967	0.48
310.334	0.49
310.701	0.55
311.067	0.5
311.433	0.54
311.8	0.54
312.166	0.47
312.533	0.4
312.899	0.43
313.265	0.43
313.631	0.35
313.997	0.29
314.363	0.22
314.729	0.21
315.096	0.23
315.461	0.23
315.827	0.1
316.193	0.09
316.559	0.01
316.925	0.1
317.291	0.02
317.656	0.07
318.022	0.13
318.388	0.07
318.753	0.09
319.119	0.16
319.484	0.14
319.85	0.08
320.215	0.18
320.581	0.13
320.946	0.12
321.311	0.16
321.676	0.17
322.042	0.11
322.407	0.07
322.772	0.04
323.137	0.08
323.502	0.12
323.867	0.16
324.232	0.16
324.597	0.22
324.962	0.36
325.327	0.41
325.691	0.54
326.056	0.49
326.421	0.49
326.785	0.48
327.15	0.45
327.514	0.5
327.879	0.52
328.243	0.44
328.608	0.5
328.972	0.55
329.337	0.48
329.701	0.43
330.065	0.46
330.429	0.46
330.794	0.43
331.158	0.5
331.522	0.57
331.886	0.56
332.25	0.54
332.614	0.58
332.978	0.55
333.342	0.54
333.705	0.55
334.069	0.55
334.433	0.5
334.797	0.41
335.16	0.43
335.524	0.45
335.887	0.37
336.251	0.33
336.614	0.39
336.978	0.34
337.341	0.36
337.705	0.32
338.068	0.47
338.431	0.45
338.794	0.44
339.158	0.39
339.521	0.36
339.884	0.39
340.247	0.28
340.61	0.25
340.973	0.26
341.336	0.28
341.699	0.25
342.062	0.19
342.424	0.12
342.787	0.02
343.15	-0.09
343.512	-0.03
343.875	0.02
344.238	-0.05
344.6	-0.09
344.963	-0.02
345.325	0.04
345.688	-0.02
346.05	-0.06
346.412	-0.06
346.775	-0.08
347.137	-0.22
347.499	-0.14
347.861	-0.09
348.223	-0.07
348.585	0
348.947	-0.05
349.309	0.02
349.671	-0.01
350.033	0.06
350.395	-0
350.757	0.09
351.118	0.1
351.48	0.2
351.842	0.18
352.203	0.26
352.565	0.23
352.927	0.23
353.288	0.29
353.65	0.35
354.011	0.33
354.372	0.27
354.734	0.29
355.095	0.35
355.456	0.41
355.817	0.4
356.179	0.39
356.54	0.29
356.901	0.29
357.262	0.28
357.623	0.29
357.984	0.39
358.345	0.44
358.705	0.49
359.066	0.4
359.427	0.48
359.788	0.46
360.148	0.57
360.509	0.5
360.87	0.56
361.23	0.62
361.591	0.65
361.951	0.7
362.312	0.79
362.672	0.79
363.032	0.77
363.393	0.78
363.753	0.76
364.113	0.78
364.473	0.81
364.833	0.75
365.193	0.76
365.553	0.86
365.913	0.81
366.273	0.79
366.633	0.71
366.993	0.73
367.353	0.67
367.713	0.7
368.072	0.77
368.432	0.62
368.792	0.6
369.151	0.58
369.511	0.6
369.87	0.61
370.23	0.55
370.589	0.58
370.949	0.55
371.308	0.51
371.667	0.44
372.027	0.4
372.386	0.49
372.745	0.51
373.104	0.54
373.463	0.59
373.822	0.68
374.181	0.79
374.54	0.71
374.899	0.83
375.258	0.87
375.617	0.97
375.975	1.05
376.334	1.13
376.693	1.17
377.052	1.13
377.41	1.34
377.769	1.38
378.127	1.42
378.486	1.54
378.844	1.66
379.202	1.74
379.561	1.65
379.919	1.59
380.277	1.64
380.636	1.77
380.994	1.93
381.352	2.03
381.71	2.11
382.068	2.13
382.426	2.04
382.784	2.16
383.142	2.15
383.5	2.28
383.857	2.37
384.215	2.5
384.573	2.57
384.931	2.5
385.288	2.54
385.646	2.57
386.003	2.73
386.361	2.76
386.718	2.81
387.076	2.85
387.433	2.82
387.791	2.87
388.148	2.91
388.505	3.17
388.862	3.31
389.22	3.38
389.577	3.52
389.934	3.64
390.291	3.82
390.648	3.97
391.005	4.23
391.362	4.53
391.718	4.7
392.075	4.79
392.432	5.05
392.789	5.21
393.145	5.38
393.502	5.56
393.859	5.75
394.215	5.94
394.572	6.23
394.928	6.46
395.285	6.7
395.641	7.02
395.997	7.38
396.354	7.79
396.71	8.05
397.066	8.4
397.422	8.73
397.778	9.12
398.134	9.49
398.491	9.81
398.846	10.22
399.202	10.55
399.558	10.94
399.914	11.14
400.27	11.48
400.626	11.82
400.981	12.27
401.337	12.67
401.693	13.07
402.048	13.51
402.404	13.87
402.759	14.37
403.115	14.83
403.47	15.24
403.826	15.79
404.181	16.26
404.536	16.74
404.892	17.18
405.247	17.65
405.602	18.17
405.957	18.65
406.312	19.14
406.667	19.57
407.022	20.11
407.377	20.69
407.732	21.22
408.087	21.76
408.442	22.26
408.796	22.89
409.151	23.44
409.506	23.99
409.86	24.54
410.215	25.07
410.57	25.64
410.924	26.18
411.279	26.74
411.633	27.27
411.987	27.96
412.342	28.66
412.696	29.14
413.05	29.78
413.404	30.27
413.758	30.88
414.113	31.47
414.467	31.97
414.821	32.52
415.175	33.16
415.529	33.86
415.882	34.3
416.236	34.64
416.59	35.13
416.944	35.63
417.298	36.29
417.651	36.64
418.005	37.02
418.358	37.69
418.712	38.08
419.065	38.54
419.419	38.92
419.772	39.25
420.126	39.79
420.479	40.31
420.832	40.6
421.185	40.75
421.539	41.19
421.892	41.46
422.245	41.89
422.598	42.21
422.951	42.56
423.304	42.84
423.657	43.09
424.01	43.37
424.363	43.56
424.715	43.96
425.068	44.45
425.421	44.73
425.773	44.99
426.126	45.2
426.479	45.52
426.831	45.8
427.184	45.91
427.536	46.16
427.889	46.33
428.241	46.63
428.593	46.93
428.945	47.23
429.298	47.54
429.65	47.7
430.002	47.93
430.354	48.1
430.706	48.27
431.058	48.38
431.41	48.64
431.762	48.71
432.114	48.86
432.466	49.2
432.817	49.31
433.169	49.66
433.521	49.86
433.872	50.08
434.224	50.25
434.576	50.26
434.927	50.43
435.279	50.64
435.63	50.75
435.981	50.94
436.333	51.23
436.684	51.36
437.035	51.39
437.387	51.36
437.738	51.29
438.089	51.27
438.44	51.35
438.791	51.51
439.142	51.68
439.493	51.71
439.844	51.72
440.195	51.7
440.545	51.82
440.896	52.03
441.247	51.99
441.598	51.9
441.948	51.78
442.299	51.8
442.649	51.76
443	51.72
443.35	51.98
443.701	51.84
444.051	51.93
444.401	52.1
444.752	51.91
445.102	51.87
445.452	51.83
445.802	52.03
446.152	52.29
446.502	52.37
446.852	52.3
447.202	52.42
447.552	52.45
447.902	52.31
448.252	52.37
448.602	52.9
448.952	52.95
449.301	52.98
449.651	53.04
450.001	53.07
450.35	53.3
450.7	53.39
451.049	53.42
451.399	53.37
451.748	53.31
452.097	53.14
452.447	53.26
452.796	53.34
453.145	53.32
453.494	53.38
453.843	53.11
454.193	53.15
454.542	53.12
454.891	53
455.239	52.93
455.588	52.91
455.937	52.89
456.286	52.83
456.635	52.74
456.984	52.82
457.332	52.18
457.681	52.19
458.03	51.97
458.378	51.92
458.727	51.99
459.075	51.7
459.423	51.62
459.772	51.47
460.12	51.44
460.468	51.45
460.817	51.48
461.165	51.28
461.513	51.09
461.861	51.01
462.209	50.9
462.557	51.17
462.905	51.21
463.253	51.06
463.601	50.99
463.949	51.05
464.297	50.98
464.644	50.8
464.992	50.67
465.34	50.76
465.687	50.59
466.035	50.59
466.383	50.54
466.73	50.74
467.078	50.54
467.425	50.4
467.772	50.52
468.12	50.48
468.467	50.42
468.814	50.44
469.161	50.29
469.508	50.21
469.856	50.17
470.203	49.96
470.55	49.81
470.897	49.68
471.243	49.53
471.59	49.23
471.937	49.1
472.284	49.12
472.631	48.86
472.977	48.79
473.324	48.77
473.671	48.65
474.017	48.42
474.364	48.42
474.71	48.18
475.057	47.97
475.403	47.75
475.749	47.64
476.096	47.48
476.442	47.29
476.788	47.04
477.134	46.81
477.48	46.54
477.826	46.39
478.172	46.25
478.518	46.26
478.864	46.22
479.21	46.06
479.556	45.86
479.902	45.68
480.248	45.55
480.593	45.41
480.939	45.19
481.285	45.04
481.63	44.82
481.976	44.65
482.321	44.58
482.667	44.46
483.012	44.32
483.357	44.35
483.703	44.15
484.048	44.09
484.393	43.96
484.738	43.85
485.084	43.71
485.429	43.66
485.774	43.69
486.119	43.61
486.464	43.51
486.808	43.35
487.153	43.09
487.498	42.89
487.843	42.77
488.188	42.78
488.532	42.69
488.877	42.55
489.222	42.36
489.566	42.21
489.911	42.16
490.255	42.05
490.6	41.87
490.944	41.59
491.288	41.38
491.633	41.21
491.977	40.86
492.321	40.7
492.665	40.36
493.009	40.14
493.353	39.86
493.697	39.67
494.041	39.47
494.385	39.24
494.729	39.13
495.073	39.03
495.417	38.92
495.76	38.7
496.104	38.49
496.448	38.3
496.791	38.11
497.135	37.78
497.479	37.55
497.822	37.43
498.165	37.19
498.509	36.93
498.852	36.7
499.196	36.47
499.539	36.39
499.882	36.28
500.225	36.1
500.568	35.93
500.911	35.83
501.254	35.82
501.597	35.66
501.94	35.56
502.283	35.43
502.626	35.31
502.969	35.13
503.312	34.84
503.654	34.61
503.997	34.39
504.34	34.3
504.682	34.16
505.025	34.03
505.367	33.77
505.71	33.56
506.052	33.44
506.395	33.34
506.737	33.24
507.079	33.06
507.421	32.95
507.764	32.92
508.106	32.72
508.448	32.58
508.79	32.36
509.132	32.34
509.474	32.23
509.816	31.99
510.158	31.9
510.499	31.77
510.841	31.61
511.183	31.51
511.525	31.31
511.866	31.34
512.208	31.16
512.549	31.14
512.891	31.04
513.232	31
513.574	30.86
513.915	30.74
514.256	30.67
514.598	30.57
514.939	30.4
515.28	30.08
515.621	30.01
515.962	29.76
516.303	29.64
516.644	29.6
516.985	29.49
517.326	29.34
517.667	29.23
518.008	29.11
518.349	29.01
518.69	29.01
519.03	28.9
519.371	28.87
519.712	28.59
520.052	28.55
520.393	28.32
520.733	28.28
521.074	27.98
521.414	27.88
521.754	27.73
522.095	27.62
522.435	27.55
522.775	27.61
523.115	27.68
523.455	27.44
523.795	27.55
524.135	27.41
524.475	27.4
524.815	27.22
525.155	27.13
525.495	26.99
525.835	27.01
526.175	26.94
526.514	26.78
526.854	26.8
527.194	26.52
527.533	26.36
527.873	26.15
528.212	26.14
528.552	26.08
528.891	26.1
529.23	25.99
529.57	25.97
529.909	25.73
530.248	25.65
530.587	25.55
530.927	25.5
531.266	25.42
531.605	25.22
531.944	25.24
532.283	25.09
532.621	25.01
532.96	24.96
533.299	24.78
533.638	24.78
533.977	24.87
534.315	24.65
534.654	24.56
534.992	24.51
535.331	24.25
535.67	24.22
536.008	24.17
536.346	24.08
536.685	23.96
537.023	23.88
537.361	23.77
537.7	23.59
538.038	23.47
538.376	23.47
538.714	23.46
539.052	23.39
539.39	23.31
539.728	23.21
540.066	23.02
540.404	22.88
540.741	22.75
541.079	22.71
541.417	22.75
541.755	22.75
542.092	22.46
542.43	22.21
542.767	22.11
543.105	21.96
543.442	21.88
543.78	21.96
544.117	21.96
544.454	21.82
544.792	21.85
545.129	21.97
545.466	21.88
545.803	21.91
546.14	21.99
546.477	21.91
546.814	21.98
547.151	21.89
547.488	21.84
547.825	21.84
548.162	21.9
548.499	21.91
548.835	21.99
549.172	22.03
549.509	21.88
549.845	21.64
550.182	21.66
550.518	21.77
550.855	21.94
551.191	22.12
551.528	22.17
551.864	22.25
552.2	22.26
552.537	22.24
552.873	22.39
553.209	22.31
553.545	22.05
553.881	22.13
554.217	22.15
554.553	22.21
554.889	22.27
555.225	22.17
555.561	22.15
555.896	22.12
556.232	22.09
556.568	21.97
556.903	22.09
557.239	22.11
557.575	22.23
557.91	22.47
558.245	22.65
558.581	22.73
558.916	22.54
559.252	22.46
559.587	22.37
559.922	22.39
560.257	22.31
560.592	22.28
560.928	22.21
561.263	22.24
561.598	22.23
561.933	22.38
562.267	22.45
562.602	22.41
562.937	22.41
563.272	22.52
563.607	22.48
563.941	22.41
564.276	22.52
564.611	22.39
564.945	22.51
565.28	22.55
565.614	22.45
565.949	22.45
566.283	22.54
566.617	22.44
566.951	22.39
567.286	22.63
567.62	22.62
567.954	22.67
568.288	22.64
568.622	22.7
568.956	22.73
569.29	22.86
569.624	22.92
569.958	23.14
570.292	23.21
570.626	23.2
570.959	23.15
571.293	23.28
571.627	23.35
571.96	23.57
572.294	23.65
572.627	23.81
572.961	24
573.294	23.96
573.627	24.02
573.961	24.09
574.294	24.13
574.627	24.11
574.961	24.26
575.294	24.37
575.627	24.25
575.96	24.31
576.293	24.36
576.626	24.36
576.959	24.39
577.292	24.51
577.624	24.57
577.957	24.54
578.29	24.53
578.623	24.51
578.955	24.54
579.288	24.66
579.62	24.68
579.953	24.67
580.285	24.63
580.618	24.76
580.95	24.64
581.282	24.62
581.615	24.71
581.947	24.75
582.279	24.9
582.611	24.95
582.943	25.02
583.275	25.04
583.607	25.15
583.939	25.41
584.271	25.47
584.603	25.53
584.935	25.7
585.267	25.85
585.598	25.74
585.93	25.74
586.262	25.89
586.593	26.01
586.925	26.1
587.256	26.17
587.588	26.21
587.919	26.28
588.25	26.39
588.582	26.51
588.913	26.51
589.244	26.72
589.575	26.89
589.907	26.96
590.238	27.04
590.569	27.15
590.9	27.29
591.231	27.39
591.562	27.56
591.892	27.6
592.223	27.71
592.554	27.89
592.885	28.03
593.215	28.2
593.546	28.19
593.877	28.3
594.207	28.43
594.538	28.5
594.868	28.7
595.198	28.89
595.529	28.96
595.859	28.98
596.189	29.02
596.52	29.25
596.85	29.25
597.18	29.29
597.51	29.37
597.84	29.37
598.17	29.48
598.5	29.65
598.83	29.76
599.16	29.97
599.489	30.11
599.819	30.27
600.149	30.63
600.479	30.75
600.808	30.9
601.138	31.08
601.467	31.3
601.797	31.56
602.126	31.89
602.456	32.21
602.785	32.41
603.114	32.52
603.443	32.8
603.773	33.21
604.102	33.72
604.431	34.17
604.76	34.31
605.089	34.64
605.418	34.85
605.747	35.21
606.076	35.58
606.405	35.95
606.733	36.15
607.062	36.43
607.391	36.54
607.72	36.81
608.048	37.11
608.377	37.23
608.705	37.87
609.034	38.24
609.362	38.54
609.69	38.87
610.019	39.28
610.347	39.57
610.675	39.81
611.004	40.01
611.332	40.32
611.66	40.65
611.988	40.82
612.316	40.91
612.644	40.87
612.972	41.08
613.3	41.35
613.627	41.87
613.955	42.06
614.283	42.43
614.611	42.53
614.938	42.77
615.266	42.91
615.593	43.32
615.921	43.72
616.248	43.98
616.576	44.25
616.903	44.37
617.23	44.58
617.558	45.12
617.885	45.31
618.212	45.67
618.539	46.14
618.866	46.36
619.193	46.87
619.52	46.98
619.847	47.12
620.174	47.4
620.501	47.68
620.828	48.22
621.155	48.67
621.481	48.73
621.808	48.91
622.135	49.08
622.461	49.26
622.788	49.5
623.114	49.86
623.441	50.12
623.767	50.29
624.093	50.4
624.42	51.08
624.746	51.86
625.072	51.99
625.398	52.41
625.725	52.54
626.051	53.03
626.377	53.51
626.703	53.37
627.029	53.49
627.354	53.57
627.68	53.93
628.006	54.23
628.332	54.63
628.658	54.79
628.983	54.94
629.309	54.99
629.634	55.46
629.96	55.51
630.285	56.34
630.611	56.46
630.936	56.82
631.262	57.08
631.587	57.17
631.912	57.26
632.237	57.92
632.562	57.86
632.887	57.21
633.213	57.09
633.538	57.9
633.863	58.67
634.187	58.64
634.512	58.34
634.837	58.83
635.162	58.8
635.487	58.7
635.811	58.79
636.136	58.79
636.461	59.09
636.785	59.39
637.11	59.76
637.434	59.94
637.758	60.68
638.083	61.17
638.407	61.26
638.731	61.31
639.056	61.83
639.38	61.54
639.704	62.12
640.028	62.33
640.352	61.96
640.676	61.34
641	61.87
641.324	61.89
641.648	60.83
641.972	60.03
642.295	60.17
642.619	60.29
642.943	59.97
643.266	59.9
643.59	60.46
643.913	60.32
644.237	60.09
644.56	60.41
644.884	61.09
645.207	61
645.53	60.85
645.854	60.48
646.177	60.31
646.5	60.2
646.823	60.15
647.146	60.18
647.469	60.51
647.792	60.51
648.115	60.96
648.438	61.61
648.761	64.4
649.084	65.66
649.406	66.56
649.729	66.09
650.052	66.11
650.374	66.24
650.697	66.39
651.019	66.42
651.342	66.76
651.664	66.71
651.987	66.8
652.309	67.26
652.631	67.32
652.953	67.07
653.276	66.95
653.598	67.28
653.92	67.22
654.242	67.5
654.564	67.42
654.886	67.42
655.208	67.37
655.53	67.29
655.851	67.58
656.173	67.58
656.495	67.68
