Data from T2_Reflection__50__00-53-44-924.txt Node

Date: Fri Jun 04 00:53:44 CEST 2021
User: mabdelazizm
Spectrometer: FLMS18565
Trigger mode: 0
Integration Time (sec): 2.000000E0
Scans to average: 1
Electric dark correction enabled: true
Nonlinearity correction enabled: false
Boxcar width: 12
XAxis mode: Wavelengths
Number of Pixels in Spectrum: 2048
>>>>>Begin Spectral Data<<<<<
179.071	247.98
179.452	78.9
179.833	16.57
180.214	-50
180.595	73.27
180.977	69.46
181.358	210.2
181.739	45.45
182.12	22.59
182.501	5.69
182.882	-18.34
183.262	-20.71
183.643	8.49
184.024	-30.06
184.405	-28.53
184.786	-6.06
185.166	10.58
185.547	18.24
185.927	28.29
186.308	27.85
186.689	31.02
187.069	31.61
187.449	29.94
187.83	24.04
188.21	18.84
188.59	16.11
188.971	19.24
189.351	21.6
189.731	20.17
190.111	23.94
190.491	22.28
190.871	18.48
191.251	17.03
191.631	16.52
192.011	14.71
192.391	13.51
192.771	15.96
193.151	15.15
193.531	19.21
193.91	20.01
194.29	16.61
194.67	16.35
195.049	15.95
195.429	16.3
195.808	19.14
196.188	16.57
196.567	15.84
196.946	20.97
197.326	21.06
197.705	23.23
198.084	25.52
198.464	23.16
198.843	19.3
199.222	22.27
199.601	21.39
199.98	20.84
200.359	22.68
200.738	26.35
201.117	26.22
201.496	25.39
201.875	27.43
202.254	26.22
202.632	22.69
203.011	23.01
203.39	20.63
203.768	20.52
204.147	20.4
204.525	17.41
204.904	16.63
205.282	12.51
205.661	12.33
206.039	10.51
206.418	8.84
206.796	9.52
207.174	12.24
207.552	13.05
207.931	11.69
208.309	12.44
208.687	9.26
209.065	10.78
209.443	11.42
209.821	12.94
210.199	12.43
210.577	12.5
210.954	13.48
211.332	11.98
211.71	12.72
212.088	14.73
212.465	14.38
212.843	15.49
213.221	14.74
213.598	16.35
213.976	16.09
214.353	16.24
214.731	16.91
215.108	18.46
215.485	18.84
215.863	17.34
216.24	17.08
216.617	14.54
216.994	14.39
217.371	14.59
217.749	15.04
218.126	14.7
218.503	13.83
218.88	13.41
219.256	12.97
219.633	10.18
220.01	10.14
220.387	10.5
220.764	11.03
221.14	10.43
221.517	10.29
221.894	9.68
222.27	10.14
222.647	10.57
223.023	10.13
223.4	10.53
223.776	9.93
224.153	9.81
224.529	9.44
224.905	8.96
225.282	9.29
225.658	8.9
226.034	7.97
226.41	7.61
226.786	7.11
227.162	7.02
227.538	7.28
227.914	6.97
228.29	6.63
228.666	5.73
229.042	6.14
229.418	6.1
229.793	5.8
230.169	5.61
230.545	5.61
230.92	5.73
231.296	5.9
231.672	5.69
232.047	5.78
232.422	5.62
232.798	5.59
233.173	5.39
233.549	5.39
233.924	5.39
234.299	5.59
234.674	5.44
235.05	5.44
235.425	5.35
235.8	5.2
236.175	5.35
236.55	5.07
236.925	5
237.3	4.74
237.675	4.72
238.049	4.8
238.424	4.83
238.799	4.66
239.174	4.71
239.548	4.66
239.923	4.49
240.297	4.4
240.672	4.29
241.046	4.23
241.421	4.03
241.795	3.89
242.17	3.77
242.544	3.57
242.918	3.55
243.293	3.46
243.667	3.45
244.041	3.46
244.415	3.47
244.789	3.62
245.163	3.68
245.537	3.62
245.911	3.67
246.285	3.63
246.659	3.65
247.033	3.63
247.406	3.72
247.78	3.61
248.154	3.6
248.528	3.49
248.901	3.48
249.275	3.54
249.648	3.51
250.022	3.52
250.395	3.46
250.769	3.5
251.142	3.58
251.515	3.58
251.888	3.66
252.262	3.65
252.635	3.73
253.008	3.72
253.381	3.65
253.754	3.57
254.127	3.58
254.5	3.46
254.873	3.41
255.246	3.42
255.619	3.38
255.992	3.42
256.364	3.41
256.737	3.29
257.11	3.34
257.483	3.3
257.855	3.32
258.228	3.29
258.6	3.28
258.973	3.26
259.345	3.2
259.718	3.17
260.09	3.14
260.462	3.03
260.834	3.02
261.207	3.02
261.579	3.04
261.951	2.94
262.323	2.85
262.695	2.82
263.067	2.83
263.439	2.79
263.811	2.91
264.183	2.83
264.555	2.78
264.927	2.83
265.298	2.85
265.67	2.79
266.042	2.79
266.413	2.67
266.785	2.74
267.156	2.79
267.528	2.73
267.899	2.63
268.271	2.62
268.642	2.65
269.013	2.75
269.385	2.76
269.756	2.78
270.127	2.82
270.498	2.84
270.87	2.72
271.241	2.71
271.612	2.7
271.983	2.72
272.354	2.66
272.724	2.6
273.095	2.58
273.466	2.63
273.837	2.6
274.208	2.58
274.578	2.46
274.949	2.46
275.32	2.46
275.69	2.5
276.061	2.44
276.431	2.39
276.802	2.5
277.172	2.56
277.542	2.48
277.913	2.42
278.283	2.38
278.653	2.31
279.023	2.31
279.394	2.22
279.764	2.16
280.134	2.26
280.504	2.31
280.874	2.33
281.244	2.25
281.614	2.3
281.983	2.25
282.353	2.16
282.723	2.2
283.093	2.21
283.462	2.23
283.832	2.32
284.202	2.33
284.571	2.26
284.941	2.31
285.31	2.31
285.68	2.34
286.049	2.25
286.418	2.14
286.788	2.26
287.157	2.34
287.526	2.3
287.895	2.31
288.264	2.28
288.633	2.26
289.002	2.24
289.371	2.12
289.74	2.05
290.109	2.02
290.478	2.09
290.847	2.09
291.216	2.13
291.585	2.12
291.953	2.08
292.322	2.07
292.691	2
293.059	1.94
293.428	1.96
293.796	2.02
294.165	1.93
294.533	1.9
294.901	1.89
295.27	1.93
295.638	2.03
296.006	1.94
296.374	1.87
296.743	1.88
297.111	1.94
297.479	1.96
297.847	1.97
298.215	1.99
298.583	1.96
298.95	1.97
299.318	2
299.686	1.94
300.054	1.92
300.422	1.87
300.789	1.88
301.157	1.88
301.525	1.83
301.892	1.82
302.26	1.89
302.627	1.83
302.994	1.84
303.362	1.84
303.729	1.88
304.097	1.81
304.464	1.79
304.831	1.73
305.198	1.77
305.565	1.73
305.932	1.74
306.299	1.72
306.666	1.73
307.033	1.73
307.4	1.71
307.767	1.7
308.134	1.67
308.501	1.6
308.867	1.62
309.234	1.58
309.601	1.54
309.967	1.5
310.334	1.46
310.701	1.41
311.067	1.4
311.433	1.4
311.8	1.42
312.166	1.33
312.533	1.33
312.899	1.31
313.265	1.33
313.631	1.27
313.997	1.21
314.363	1.12
314.729	1.1
315.096	1.12
315.461	1.07
315.827	1.06
316.193	1.05
316.559	1.03
316.925	1.12
317.291	1.12
317.656	1.14
318.022	1.18
318.388	1.12
318.753	1.2
319.119	1.24
319.484	1.25
319.85	1.23
320.215	1.32
320.581	1.29
320.946	1.3
321.311	1.29
321.676	1.24
322.042	1.23
322.407	1.18
322.772	1.19
323.137	1.3
323.502	1.36
323.867	1.37
324.232	1.3
324.597	1.28
324.962	1.29
325.327	1.3
325.691	1.37
326.056	1.36
326.421	1.38
326.785	1.42
327.15	1.44
327.514	1.54
327.879	1.52
328.243	1.53
328.608	1.54
328.972	1.67
329.337	1.57
329.701	1.47
330.065	1.54
330.429	1.61
330.794	1.64
331.158	1.72
331.522	1.83
331.886	1.84
332.25	1.84
332.614	1.78
332.978	1.84
333.342	1.97
333.705	1.97
334.069	2
334.433	1.94
334.797	1.9
335.16	1.87
335.524	1.86
335.887	1.72
336.251	1.64
336.614	1.66
336.978	1.61
337.341	1.6
337.705	1.57
338.068	1.58
338.431	1.59
338.794	1.56
339.158	1.51
339.521	1.39
339.884	1.41
340.247	1.25
340.61	1.19
340.973	1.16
341.336	1.12
341.699	1.14
342.062	1.08
342.424	0.95
342.787	0.94
343.15	0.81
343.512	0.88
343.875	0.88
344.238	0.84
344.6	0.83
344.963	0.94
345.325	0.92
345.688	0.9
346.05	0.87
346.412	0.89
346.775	0.93
347.137	0.88
347.499	0.91
347.861	1
348.223	1
348.585	1.15
348.947	1.07
349.309	1.19
349.671	1.14
350.033	1.22
350.395	1.22
350.757	1.26
351.118	1.23
351.48	1.31
351.842	1.33
352.203	1.42
352.565	1.35
352.927	1.31
353.288	1.35
353.65	1.24
354.011	1.23
354.372	1.25
354.734	1.25
355.095	1.38
355.456	1.42
355.817	1.44
356.179	1.37
356.54	1.33
356.901	1.32
357.262	1.28
357.623	1.16
357.984	1.27
358.345	1.22
358.705	1.3
359.066	1.23
359.427	1.35
359.788	1.33
360.148	1.37
360.509	1.27
360.87	1.29
361.23	1.27
361.591	1.27
361.951	1.46
362.312	1.53
362.672	1.68
363.032	1.68
363.393	1.67
363.753	1.62
364.113	1.62
364.473	1.63
364.833	1.58
365.193	1.62
365.553	1.71
365.913	1.71
366.273	1.77
366.633	1.83
366.993	1.77
367.353	1.69
367.713	1.6
368.072	1.65
368.432	1.51
368.792	1.55
369.151	1.57
369.511	1.68
369.87	1.66
370.23	1.65
370.589	1.69
370.949	1.56
371.308	1.5
371.667	1.45
372.027	1.44
372.386	1.47
372.745	1.5
373.104	1.44
373.463	1.35
373.822	1.39
374.181	1.35
374.54	1.22
374.899	1.29
375.258	1.29
375.617	1.36
375.975	1.46
376.334	1.54
376.693	1.69
377.052	1.75
377.41	1.82
377.769	1.8
378.127	1.78
378.486	1.77
378.844	1.86
379.202	1.95
379.561	1.83
379.919	1.76
380.277	1.78
380.636	1.81
380.994	1.87
381.352	1.94
381.71	1.98
382.068	1.96
382.426	1.94
382.784	1.97
383.142	2.04
383.5	2.08
383.857	2.12
384.215	2.09
384.573	2.11
384.931	2.11
385.288	2.08
385.646	2.01
386.003	2.02
386.361	2.01
386.718	1.96
387.076	2.01
387.433	2.01
387.791	1.97
388.148	1.91
388.505	2.09
388.862	2.16
389.22	2.13
389.577	2.18
389.934	2.14
390.291	2.17
390.648	2.24
391.005	2.31
391.362	2.41
391.718	2.39
392.075	2.41
392.432	2.52
392.789	2.49
393.145	2.65
393.502	2.7
393.859	2.69
394.215	2.78
394.572	2.83
394.928	2.87
395.285	2.92
395.641	3.07
395.997	3.2
396.354	3.31
396.71	3.49
397.066	3.59
397.422	3.74
397.778	3.9
398.134	4.15
398.491	4.28
398.846	4.49
399.202	4.76
399.558	4.88
399.914	5.09
400.27	5.23
400.626	5.46
400.981	5.66
401.337	5.89
401.693	6.1
402.048	6.32
402.404	6.57
402.759	6.88
403.115	7.17
403.47	7.57
403.826	7.96
404.181	8.29
404.536	8.56
404.892	8.7
405.247	8.96
405.602	9.32
405.957	9.71
406.312	9.94
406.667	10.24
407.022	10.65
407.377	11.02
407.732	11.4
408.087	11.71
408.442	12.22
408.796	12.6
409.151	13.01
409.506	13.56
409.86	14.1
410.215	14.66
410.57	15.21
410.924	15.63
411.279	16.12
411.633	16.66
411.987	17.24
412.342	17.64
412.696	18.03
413.05	18.56
413.404	19.21
413.758	19.96
414.113	20.51
414.467	20.97
414.821	21.59
415.175	22.31
415.529	22.99
415.882	23.54
416.236	24.16
416.59	24.73
416.944	25.31
417.298	25.84
417.651	26.3
418.005	26.89
418.358	27.46
418.712	28.02
419.065	28.43
419.419	28.9
419.772	29.46
420.126	30
420.479	30.49
420.832	30.92
421.185	31.43
421.539	31.99
421.892	32.46
422.245	32.85
422.598	33.29
422.951	33.92
423.304	34.26
423.657	34.55
424.01	34.94
424.363	35.33
424.715	35.69
425.068	36.2
425.421	36.64
425.773	37.16
426.126	37.52
426.479	37.93
426.831	38.32
427.184	38.58
427.536	38.84
427.889	39.27
428.241	39.72
428.593	40.04
428.945	40.39
429.298	40.71
429.65	41.11
430.002	41.49
430.354	41.66
430.706	42.02
431.058	42.35
431.41	42.65
431.762	42.93
432.114	43.34
432.466	43.71
432.817	44.05
433.169	44.28
433.521	44.58
433.872	44.67
434.224	44.87
434.576	44.91
434.927	45.2
435.279	45.47
435.63	45.79
435.981	46.04
436.333	46.38
436.684	46.5
437.035	46.5
437.387	46.54
437.738	46.6
438.089	46.66
438.44	46.7
438.791	46.84
439.142	47.05
439.493	47.21
439.844	47.35
440.195	47.44
440.545	47.47
440.896	47.46
441.247	47.44
441.598	47.35
441.948	47.47
442.299	47.62
442.649	47.78
443	47.95
443.35	48.03
443.701	47.99
444.051	47.96
444.401	47.99
444.752	47.89
445.102	47.94
445.452	48
445.802	48.09
446.152	48.34
446.502	48.47
446.852	48.47
447.202	48.52
447.552	48.52
447.902	48.51
448.252	48.51
448.602	48.79
448.952	48.8
449.301	48.73
449.651	48.99
450.001	49.11
450.35	49.32
450.7	49.4
451.049	49.27
451.399	49.41
451.748	49.33
452.097	49.38
452.447	49.45
452.796	49.57
453.145	49.52
453.494	49.78
453.843	49.61
454.193	49.53
454.542	49.56
454.891	49.39
455.239	49.33
455.588	49.26
455.937	49.18
456.286	49.15
456.635	49.2
456.984	49.13
457.332	48.68
457.681	48.66
458.03	48.5
458.378	48.1
458.727	48.2
459.075	48.07
459.423	48.03
459.772	47.9
460.12	47.58
460.468	47.49
460.817	47.36
461.165	47.13
461.513	47.05
461.861	46.94
462.209	46.65
462.557	46.47
462.905	46.45
463.253	46.38
463.601	46.25
463.949	46.04
464.297	45.86
464.644	45.73
464.992	45.6
465.34	45.6
465.687	45.48
466.035	45.34
466.383	45.22
466.73	45.34
467.078	45.31
467.425	44.99
467.772	44.89
468.12	44.76
468.467	44.69
468.814	44.79
469.161	44.77
469.508	44.68
469.856	44.61
470.203	44.37
470.55	44.36
470.897	44.16
471.243	44.15
471.59	43.9
471.937	43.67
472.284	43.56
472.631	43.5
472.977	43.52
473.324	43.52
473.671	43.28
474.017	42.96
474.364	42.82
474.71	42.6
475.057	42.38
475.403	42.1
475.749	41.98
476.096	41.8
476.442	41.59
476.788	41.36
477.134	41.18
477.48	40.89
477.826	40.52
478.172	40.33
478.518	40.22
478.864	40.05
479.21	39.79
479.556	39.54
479.902	39.4
480.248	39.15
480.593	38.98
480.939	38.79
481.285	38.59
481.63	38.43
481.976	38.18
482.321	38.01
482.667	37.78
483.012	37.61
483.357	37.54
483.703	37.36
484.048	37.2
484.393	36.98
484.738	36.84
485.084	36.63
485.429	36.46
485.774	36.38
486.119	36.28
486.464	36.18
486.808	36.04
487.153	35.79
487.498	35.62
487.843	35.38
488.188	35.3
488.532	35.12
488.877	34.95
489.222	34.76
489.566	34.55
489.911	34.39
490.255	34.23
490.6	34.04
490.944	33.86
491.288	33.72
491.633	33.56
491.977	33.29
492.321	33.04
492.665	32.85
493.009	32.65
493.353	32.46
493.697	32.29
494.041	32.1
494.385	31.83
494.729	31.54
495.073	31.36
495.417	31.11
495.76	30.92
496.104	30.78
496.448	30.61
496.791	30.39
497.135	30.15
497.479	29.95
497.822	29.78
498.165	29.58
498.509	29.35
498.852	29.07
499.196	28.91
499.539	28.76
499.882	28.54
500.225	28.3
500.568	28.16
500.911	28.12
501.254	27.96
501.597	27.8
501.94	27.64
502.283	27.51
502.626	27.34
502.969	27.17
503.312	26.92
503.654	26.73
503.997	26.54
504.34	26.41
504.682	26.26
505.025	26.18
505.367	26.01
505.71	25.67
506.052	25.57
506.395	25.47
506.737	25.31
507.079	25.19
507.421	25.01
507.764	24.79
508.106	24.66
508.448	24.65
508.79	24.45
509.132	24.31
509.474	24.04
509.816	23.89
510.158	23.78
510.499	23.65
510.841	23.49
511.183	23.39
511.525	23.31
511.866	23.38
512.208	23.22
512.549	23.16
512.891	23.1
513.232	23
513.574	22.78
513.915	22.58
514.256	22.66
514.598	22.58
514.939	22.36
515.28	22.19
515.621	22
515.962	21.9
516.303	21.83
516.644	21.63
516.985	21.38
517.326	21.25
517.667	21.12
518.008	21.05
518.349	20.99
518.69	20.95
519.03	20.79
519.371	20.76
519.712	20.6
520.052	20.57
520.393	20.42
520.733	20.39
521.074	20.17
521.414	19.88
521.754	19.72
522.095	19.59
522.435	19.46
522.775	19.27
523.115	19.1
523.455	19.04
523.795	19.04
524.135	18.91
524.475	18.89
524.815	18.73
525.155	18.79
525.495	18.73
525.835	18.76
526.175	18.76
526.514	18.68
526.854	18.51
527.194	18.35
527.533	18.21
527.873	17.99
528.212	17.79
528.552	17.71
528.891	17.53
529.23	17.42
529.57	17.47
529.909	17.48
530.248	17.35
530.587	17.38
530.927	17.4
531.266	17.3
531.605	17.2
531.944	17.15
532.283	16.98
532.621	17
532.96	17
533.299	16.9
533.638	16.65
533.977	16.62
534.315	16.55
534.654	16.31
534.992	16.14
535.331	15.98
535.67	15.85
536.008	15.8
536.346	15.69
536.685	15.7
537.023	15.6
537.361	15.46
537.7	15.43
538.038	15.38
538.376	15.35
538.714	15.31
539.052	15.18
539.39	15.18
539.728	15.15
540.066	15.09
540.404	14.93
540.741	14.85
541.079	14.75
541.417	14.65
541.755	14.68
542.092	14.58
542.43	14.48
542.767	14.28
543.105	14.31
543.442	14.28
543.78	14.34
544.117	14.23
544.454	14.13
544.792	14.12
545.129	14.14
545.466	13.96
545.803	14.08
546.14	14.18
546.477	13.99
546.814	13.99
547.151	14.06
547.488	14.12
547.825	14.01
548.162	14.18
548.499	14.23
548.835	14.23
549.172	14.27
549.509	14.14
549.845	13.99
550.182	13.92
550.518	13.96
550.855	13.98
551.191	14.15
551.528	14.1
551.864	14.3
552.2	14.41
552.537	14.52
552.873	14.62
553.209	14.64
553.545	14.49
553.881	14.58
554.217	14.63
554.553	14.49
554.889	14.57
555.225	14.44
555.561	14.3
555.896	14.18
556.232	14.18
556.568	14.1
556.903	13.99
557.239	14.01
557.575	14.08
557.91	14.11
558.245	14.23
558.581	14.34
558.916	14.36
559.252	14.4
559.587	14.25
559.922	14.44
560.257	14.3
560.592	14.21
560.928	14.2
561.263	14.31
561.598	14.42
561.933	14.49
562.267	14.57
562.602	14.53
562.937	14.55
563.272	14.48
563.607	14.51
563.941	14.54
564.276	14.57
564.611	14.52
564.945	14.45
565.28	14.44
565.614	14.53
565.949	14.54
566.283	14.63
566.617	14.59
566.951	14.54
567.286	14.54
567.62	14.48
567.954	14.65
568.288	14.65
568.622	14.73
568.956	14.84
569.29	14.88
569.624	14.88
569.958	14.9
570.292	15
570.626	15
570.959	15
571.293	14.99
571.627	15.08
571.96	15.23
572.294	15.36
572.627	15.48
572.961	15.7
573.294	15.75
573.627	15.86
573.961	15.87
574.294	15.84
574.627	15.89
574.961	15.98
575.294	16.04
575.627	16
575.96	16.05
576.293	16.06
576.626	16.04
576.959	16.13
577.292	16.03
577.624	16.17
577.957	16.18
578.29	16.23
578.623	16.3
578.955	16.32
579.288	16.43
579.62	16.59
579.953	16.65
580.285	16.62
580.618	16.63
580.95	16.56
581.282	16.48
581.615	16.55
581.947	16.64
582.279	16.75
582.611	16.85
582.943	16.91
583.275	16.95
583.607	17.06
583.939	17.3
584.271	17.44
584.603	17.48
584.935	17.53
585.267	17.58
585.598	17.8
585.93	17.74
586.262	17.87
586.593	17.93
586.925	17.92
587.256	18.04
587.588	18.05
587.919	18.02
588.25	18.06
588.582	18.18
588.913	18.24
589.244	18.46
589.575	18.69
589.907	18.74
590.238	18.88
590.569	18.95
590.9	19.13
591.231	19.15
591.562	19.24
591.892	19.44
592.223	19.43
592.554	19.5
592.885	19.69
593.215	19.88
593.546	19.98
593.877	20.03
594.207	20.26
594.538	20.4
594.868	20.52
595.198	20.72
595.529	20.75
595.859	20.85
596.189	20.94
596.52	21.17
596.85	21.27
597.18	21.43
597.51	21.44
597.84	21.43
598.17	21.67
598.5	21.74
598.83	21.97
599.16	22.16
599.489	22.39
599.819	22.7
600.149	22.88
600.479	23.21
600.808	23.32
601.138	23.55
601.467	23.8
601.797	24
602.126	24.28
602.456	24.45
602.785	24.62
603.114	24.94
603.443	25.15
603.773	25.44
604.102	25.8
604.431	26.21
604.76	26.49
605.089	26.71
605.418	27.05
605.747	27.45
606.076	27.73
606.405	27.86
606.733	28.1
607.062	28.39
607.391	28.45
607.72	28.8
608.048	29.04
608.377	29.21
608.705	29.52
609.034	30
609.362	30.4
609.69	30.76
610.019	31.22
610.347	31.4
610.675	31.65
611.004	31.86
611.332	32.14
611.66	32.49
611.988	32.85
612.316	33.08
612.644	33.14
612.972	33.23
613.3	33.54
613.627	33.78
613.955	34.16
614.283	34.7
614.611	35.01
614.938	35.38
615.266	35.54
615.593	36.17
615.921	36.5
616.248	36.79
616.576	37.39
616.903	37.79
617.23	38.25
617.558	38.66
617.885	39.1
618.212	39.51
618.539	40.21
618.866	40.6
619.193	41.02
619.52	41.18
619.847	41.56
620.174	42.09
620.501	42.41
620.828	42.57
621.155	43.3
621.481	43.55
621.808	43.78
622.135	43.83
622.461	43.93
622.788	44.2
623.114	44.65
623.441	44.71
623.767	44.83
624.093	45.11
624.42	45.63
624.746	46.16
625.072	46.62
625.398	47.02
625.725	46.91
626.051	47.06
626.377	47.11
626.703	47.06
627.029	47.22
627.354	47.75
627.68	48.3
628.006	48.72
628.332	48.98
628.658	49.34
628.983	50.12
629.309	49.87
629.634	50.47
629.96	50.86
630.285	51.79
630.611	51.85
630.936	52.55
631.262	52.8
631.587	53.29
631.912	53.68
632.237	54.33
632.562	54.62
632.887	54.11
633.213	54.13
633.538	54.47
633.863	55.47
634.187	55.5
634.512	55.9
634.837	56.14
635.162	56.34
635.487	56.19
635.811	56.28
636.136	56.51
636.461	56.52
636.785	56.74
637.11	57.42
637.434	57.47
637.758	57.76
638.083	58.1
638.407	57.59
638.731	58.01
639.056	58.53
639.38	58.09
639.704	58.82
640.028	59.47
640.352	59.37
640.676	59.22
641	59.74
641.324	59.54
641.648	59.47
641.972	59.56
642.295	60.4
642.619	60.48
642.943	60.8
643.266	60.88
643.59	61.36
643.913	61.65
644.237	61.11
644.56	61.23
644.884	61.55
645.207	61.57
645.53	62.2
645.854	62.41
646.177	62.76
646.5	63.05
646.823	63.56
647.146	63.52
647.469	64.15
647.792	64.66
648.115	64.74
648.438	65.17
648.761	67.19
649.084	68.21
649.406	68.49
649.729	68.05
650.052	67.83
650.374	68.06
650.697	68.49
651.019	68.53
651.342	68.82
651.664	68.9
651.987	68.94
652.309	69.32
652.631	69.65
652.953	69.64
653.276	69.59
653.598	69.65
653.92	69.59
654.242	69.75
654.564	69.91
654.886	69.79
655.208	69.76
655.53	69.62
655.851	69.49
656.173	69.54
656.495	69.63
656.816	69.16
657.138	68.95
657.46	69.4
657.781	71.57
658.103	72.77
658.424	72.97
658.746	72.78
