Data from T2_Reflection__37__00-42-54-945.txt Node

Date: Fri Jun 04 00:42:54 CEST 2021
User: mabdelazizm
Spectrometer: FLMS18565
Trigger mode: 0
Integration Time (sec): 2.000000E0
Scans to average: 1
Electric dark correction enabled: true
Nonlinearity correction enabled: false
Boxcar width: 12
XAxis mode: Wavelengths
Number of Pixels in Spectrum: 2048
>>>>>Begin Spectral Data<<<<<
179.071	320.18
179.452	130.8
179.833	274.25
180.214	3650
180.595	223.96
180.977	253.2
181.358	1514.29
181.739	-454.55
182.12	-100.16
182.501	-79.73
182.882	-47.52
183.262	24.85
183.643	30.1
184.024	14.8
184.405	12.43
184.786	19.74
185.166	38.82
185.547	27.31
185.927	37.23
186.308	34.5
186.689	48.42
187.069	42.48
187.449	42
187.83	34.65
188.21	30.51
188.59	36.91
188.971	39.38
189.351	47.62
189.731	44.17
190.111	45.8
190.491	43.7
190.871	41.02
191.251	42.69
191.631	42.35
192.011	38.72
192.391	33.26
192.771	32.29
193.151	32.19
193.531	31.33
193.91	32.84
194.29	33.45
194.67	30.8
195.049	34.29
195.429	31.24
195.808	29.33
196.188	24.75
196.567	22.06
196.946	25.1
197.326	23.47
197.705	22.83
198.084	19.99
198.464	16.47
198.843	13.81
199.222	15.08
199.601	12.02
199.98	13.57
200.359	16.18
200.738	16.92
201.117	17.75
201.496	18.02
201.875	19.48
202.254	17.28
202.632	16
203.011	19.99
203.39	17.72
203.768	16.79
204.147	17.1
204.525	14.26
204.904	12.56
205.282	12.27
205.661	11.28
206.039	11.88
206.418	11.68
206.796	14.36
207.174	16.45
207.552	17.78
207.931	16.8
208.309	18.42
208.687	16.07
209.065	17.35
209.443	17.56
209.821	15.54
210.199	15.35
210.577	14.49
210.954	15.14
211.332	14.65
211.71	13.69
212.088	10.76
212.465	9.42
212.843	11.4
213.221	10.01
213.598	9.95
213.976	12.34
214.353	16.04
214.731	16.92
215.108	18.94
215.485	20.29
215.863	18.15
216.24	16.3
216.617	14.65
216.994	14.73
217.371	15.22
217.749	14.02
218.126	14.25
218.503	13.51
218.88	12.28
219.256	12.98
219.633	10.89
220.01	10.4
220.387	10.78
220.764	11.32
221.14	12.26
221.517	13
221.894	12.5
222.27	11.8
222.647	12.1
223.023	11.32
223.4	10.22
223.776	8.27
224.153	8.57
224.529	7.54
224.905	6.78
225.282	6.63
225.658	6.72
226.034	6.44
226.41	5.9
226.786	5.69
227.162	5.42
227.538	5.48
227.914	5.45
228.29	5.01
228.666	4.55
229.042	4.74
229.418	4.76
229.793	4.39
230.169	4.47
230.545	4.06
230.92	4.32
231.296	4.4
231.672	4.5
232.047	4.56
232.422	4.78
232.798	4.64
233.173	4.95
233.549	5.03
233.924	5.07
234.299	5.17
234.674	5.18
235.05	5.16
235.425	5.05
235.8	4.96
236.175	4.98
236.55	4.76
236.925	4.8
237.3	4.52
237.675	4.56
238.049	4.58
238.424	4.75
238.799	4.89
239.174	4.97
239.548	5
239.923	4.95
240.297	4.86
240.672	4.7
241.046	4.65
241.421	4.57
241.795	4.43
242.17	4.51
242.544	4.22
242.918	4.18
243.293	4.17
243.667	4.21
244.041	4.18
244.415	4.21
244.789	4.2
245.163	4.21
245.537	4.16
245.911	4.24
246.285	4.21
246.659	4.32
247.033	4.25
247.406	4.34
247.78	4.22
248.154	4.05
248.528	4.02
248.901	3.98
249.275	3.96
249.648	3.99
250.022	4.03
250.395	4
250.769	3.96
251.142	4.03
251.515	4.02
251.888	4.15
252.262	4.13
252.635	4.15
253.008	4.02
253.381	3.96
253.754	3.9
254.127	3.91
254.5	3.92
254.873	3.89
255.246	3.87
255.619	3.85
255.992	3.83
256.364	3.81
256.737	3.7
257.11	3.69
257.483	3.66
257.855	3.67
258.228	3.63
258.6	3.67
258.973	3.55
259.345	3.49
259.718	3.42
260.09	3.42
260.462	3.35
260.834	3.35
261.207	3.33
261.579	3.32
261.951	3.25
262.323	3.27
262.695	3.26
263.067	3.29
263.439	3.28
263.811	3.28
264.183	3.21
264.555	3.23
264.927	3.2
265.298	3.23
265.67	3.18
266.042	3.18
266.413	3.14
266.785	3.22
267.156	3.22
267.528	3.16
267.899	3.09
268.271	3.12
268.642	3.15
269.013	3.2
269.385	3.22
269.756	3.23
270.127	3.22
270.498	3.19
270.87	3.12
271.241	3.1
271.612	3.07
271.983	3.09
272.354	2.97
272.724	2.91
273.095	2.9
273.466	2.98
273.837	2.96
274.208	3.01
274.578	2.95
274.949	2.94
275.32	2.96
275.69	3
276.061	2.99
276.431	2.92
276.802	2.91
277.172	2.91
277.542	2.8
277.913	2.82
278.283	2.75
278.653	2.73
279.023	2.72
279.394	2.69
279.764	2.69
280.134	2.71
280.504	2.66
280.874	2.66
281.244	2.66
281.614	2.72
281.983	2.7
282.353	2.63
282.723	2.58
283.093	2.55
283.462	2.56
283.832	2.53
284.202	2.59
284.571	2.49
284.941	2.48
285.31	2.5
285.68	2.57
286.049	2.57
286.418	2.54
286.788	2.66
287.157	2.63
287.526	2.65
287.895	2.58
288.264	2.54
288.633	2.45
289.002	2.44
289.371	2.42
289.74	2.42
290.109	2.4
290.478	2.38
290.847	2.41
291.216	2.45
291.585	2.45
291.953	2.43
292.322	2.49
292.691	2.42
293.059	2.42
293.428	2.42
293.796	2.48
294.165	2.42
294.533	2.33
294.901	2.31
295.27	2.33
295.638	2.43
296.006	2.35
296.374	2.29
296.743	2.23
297.111	2.32
297.479	2.27
297.847	2.3
298.215	2.27
298.583	2.16
298.95	2.19
299.318	2.18
299.686	2.11
300.054	2.04
300.422	2.04
300.789	2.11
301.157	2.07
301.525	1.99
301.892	2.02
302.26	2.01
302.627	1.93
302.994	1.88
303.362	1.89
303.729	1.92
304.097	1.86
304.464	1.85
304.831	1.78
305.198	1.73
305.565	1.69
305.932	1.64
306.299	1.61
306.666	1.66
307.033	1.64
307.4	1.67
307.767	1.68
308.134	1.64
308.501	1.59
308.867	1.55
309.234	1.57
309.601	1.47
309.967	1.4
310.334	1.4
310.701	1.44
311.067	1.35
311.433	1.38
311.8	1.41
312.166	1.37
312.533	1.36
312.899	1.32
313.265	1.34
313.631	1.27
313.997	1.19
314.363	1.21
314.729	1.27
315.096	1.36
315.461	1.31
315.827	1.33
316.193	1.31
316.559	1.23
316.925	1.33
317.291	1.29
317.656	1.3
318.022	1.4
318.388	1.29
318.753	1.38
319.119	1.39
319.484	1.39
319.85	1.31
320.215	1.41
320.581	1.36
320.946	1.38
321.311	1.41
321.676	1.39
322.042	1.35
322.407	1.28
322.772	1.27
323.137	1.38
323.502	1.38
323.867	1.4
324.232	1.32
324.597	1.38
324.962	1.34
325.327	1.42
325.691	1.53
326.056	1.42
326.421	1.47
326.785	1.47
327.15	1.39
327.514	1.44
327.879	1.43
328.243	1.46
328.608	1.51
328.972	1.56
329.337	1.45
329.701	1.44
330.065	1.43
330.429	1.43
330.794	1.43
331.158	1.54
331.522	1.61
331.886	1.63
332.25	1.58
332.614	1.63
332.978	1.58
333.342	1.71
333.705	1.66
334.069	1.65
334.433	1.55
334.797	1.48
335.16	1.55
335.524	1.58
335.887	1.51
336.251	1.5
336.614	1.58
336.978	1.53
337.341	1.44
337.705	1.36
338.068	1.36
338.431	1.37
338.794	1.29
339.158	1.26
339.521	1.25
339.884	1.3
340.247	1.21
340.61	1.17
340.973	1.15
341.336	1.17
341.699	1.11
342.062	1.11
342.424	0.94
342.787	0.94
343.15	0.87
343.512	0.95
343.875	0.93
344.238	0.87
344.6	0.83
344.963	0.88
345.325	0.89
345.688	0.87
346.05	0.78
346.412	0.81
346.775	0.93
347.137	0.87
347.499	0.95
347.861	0.99
348.223	1.05
348.585	1.05
348.947	1
349.309	1.02
349.671	0.97
350.033	1.08
350.395	1.04
350.757	1.17
351.118	1.17
351.48	1.22
351.842	1.22
352.203	1.28
352.565	1.2
352.927	1.19
353.288	1.21
353.65	1.17
354.011	1.13
354.372	1.16
354.734	1.19
355.095	1.24
355.456	1.32
355.817	1.21
356.179	1.19
356.54	1.16
356.901	1.19
357.262	1.13
357.623	1.17
357.984	1.26
358.345	1.27
358.705	1.3
359.066	1.25
359.427	1.27
359.788	1.17
360.148	1.16
360.509	1.15
360.87	1.2
361.23	1.21
361.591	1.2
361.951	1.33
362.312	1.41
362.672	1.48
363.032	1.49
363.393	1.44
363.753	1.4
364.113	1.42
364.473	1.47
364.833	1.44
365.193	1.55
365.553	1.56
365.913	1.6
366.273	1.68
366.633	1.62
366.993	1.53
367.353	1.52
367.713	1.46
368.072	1.46
368.432	1.39
368.792	1.41
369.151	1.44
369.511	1.43
369.87	1.39
370.23	1.43
370.589	1.49
370.949	1.36
371.308	1.37
371.667	1.37
372.027	1.39
372.386	1.39
372.745	1.39
373.104	1.39
373.463	1.31
373.822	1.37
374.181	1.29
374.54	1.28
374.899	1.24
375.258	1.19
375.617	1.29
375.975	1.41
376.334	1.4
376.693	1.59
377.052	1.63
377.41	1.81
377.769	1.81
378.127	1.88
378.486	1.95
378.844	2.09
379.202	2.07
379.561	2.07
379.919	2.07
380.277	2
380.636	1.98
380.994	2.09
381.352	2.19
381.71	2.24
382.068	2.32
382.426	2.29
382.784	2.53
383.142	2.61
383.5	2.66
383.857	2.77
384.215	2.92
384.573	2.97
384.931	2.96
385.288	3.09
385.646	3.14
386.003	3.2
386.361	3.24
386.718	3.32
387.076	3.38
387.433	3.51
387.791	3.48
388.148	3.68
388.505	3.85
388.862	4.03
389.22	4.23
389.577	4.41
389.934	4.57
390.291	4.8
390.648	4.95
391.005	5.18
391.362	5.5
391.718	5.59
392.075	5.79
392.432	6.07
392.789	6.24
393.145	6.46
393.502	6.69
393.859	6.94
394.215	7.13
394.572	7.38
394.928	7.63
395.285	7.81
395.641	8.16
395.997	8.46
396.354	8.77
396.71	9.25
397.066	9.5
397.422	9.97
397.778	10.42
398.134	10.89
398.491	11.34
398.846	11.69
399.202	12.15
399.558	12.67
399.914	12.99
400.27	13.44
400.626	13.88
400.981	14.31
401.337	14.83
401.693	15.34
402.048	15.8
402.404	16.37
402.759	16.94
403.115	17.48
403.47	17.98
403.826	18.55
404.181	19.16
404.536	19.71
404.892	20.22
405.247	20.8
405.602	21.35
405.957	21.86
406.312	22.28
406.667	22.73
407.022	23.2
407.377	23.79
407.732	24.41
408.087	24.85
408.442	25.36
408.796	25.97
409.151	26.49
409.506	27.02
409.86	27.67
410.215	28.19
410.57	28.81
410.924	29.26
411.279	29.64
411.633	30.11
411.987	30.59
412.342	31.14
412.696	31.6
413.05	32.07
413.404	32.56
413.758	33.08
414.113	33.42
414.467	33.78
414.821	34.2
415.175	34.73
415.529	35.21
415.882	35.61
416.236	35.83
416.59	36.12
416.944	36.57
417.298	36.95
417.651	37.17
418.005	37.5
418.358	37.87
418.712	38.15
419.065	38.43
419.419	38.57
419.772	38.9
420.126	39.22
420.479	39.37
420.832	39.62
421.185	39.74
421.539	39.97
421.892	40.04
422.245	40.14
422.598	40.33
422.951	40.63
423.304	40.73
423.657	40.95
424.01	41.1
424.363	41.33
424.715	41.42
425.068	41.7
425.421	41.92
425.773	41.98
426.126	42.08
426.479	42.45
426.831	42.59
427.184	42.65
427.536	42.78
427.889	42.88
428.241	43.04
428.593	43.09
428.945	43.22
429.298	43.48
429.65	43.67
430.002	43.85
430.354	43.93
430.706	44.23
431.058	44.37
431.41	44.48
431.762	44.5
432.114	44.67
432.466	44.84
432.817	44.89
433.169	44.89
433.521	45.02
433.872	45.07
434.224	45.17
434.576	45.29
434.927	45.5
435.279	45.58
435.63	45.54
435.981	45.76
436.333	45.77
436.684	45.89
437.035	46.04
437.387	45.91
437.738	46.01
438.089	46.11
438.44	46.18
438.791	46.26
439.142	46.34
439.493	46.39
439.844	46.48
440.195	46.61
440.545	46.75
440.896	46.84
441.247	46.94
441.598	46.88
441.948	47.07
442.299	47.31
442.649	47.34
443	47.49
443.35	47.62
443.701	47.6
444.051	47.63
444.401	47.92
444.752	47.82
445.102	47.94
445.452	47.94
445.802	48
446.152	48.39
446.502	48.42
446.852	48.31
447.202	48.33
447.552	48.46
447.902	48.62
448.252	48.74
448.602	49.15
448.952	49.17
449.301	49.37
449.651	49.57
450.001	49.55
450.35	49.8
450.7	49.62
451.049	49.55
451.399	49.61
451.748	49.6
452.097	49.58
452.447	49.52
452.796	49.61
453.145	49.48
453.494	49.65
453.843	49.59
454.193	49.67
454.542	49.68
454.891	49.51
455.239	49.6
455.588	49.63
455.937	49.67
456.286	49.62
456.635	49.66
456.984	49.57
457.332	49.27
457.681	49.28
458.03	49.08
458.378	48.9
458.727	49.09
459.075	49.07
459.423	49.23
459.772	49.08
460.12	49.11
460.468	48.97
460.817	49.02
461.165	48.92
461.513	48.88
461.861	48.99
462.209	48.86
462.557	48.87
462.905	48.83
463.253	48.83
463.601	48.98
463.949	48.92
464.297	48.96
464.644	48.82
464.992	48.81
465.34	48.73
465.687	48.76
466.035	48.53
466.383	48.45
466.73	48.62
467.078	48.5
467.425	48.32
467.772	48.3
468.12	48.25
468.467	48.44
468.814	48.5
469.161	48.52
469.508	48.46
469.856	48.54
470.203	48.47
470.55	48.28
470.897	48.13
471.243	48.08
471.59	48.03
471.937	47.92
472.284	47.84
472.631	47.76
472.977	47.61
473.324	47.68
473.671	47.58
474.017	47.46
474.364	47.24
474.71	47.09
475.057	47
475.403	46.77
475.749	46.7
476.096	46.54
476.442	46.43
476.788	46.3
477.134	46.03
477.48	45.88
477.826	45.77
478.172	45.63
478.518	45.56
478.864	45.34
479.21	45.25
479.556	45.1
479.902	44.99
480.248	44.83
480.593	44.67
480.939	44.62
481.285	44.57
481.63	44.54
481.976	44.36
482.321	44.34
482.667	44.26
483.012	44.3
483.357	44.31
483.703	44.27
484.048	44.23
484.393	44.27
484.738	44.3
485.084	44.19
485.429	44.16
485.774	44.12
486.119	44.03
486.464	43.93
486.808	43.87
487.153	43.64
487.498	43.66
487.843	43.55
488.188	43.58
488.532	43.57
488.877	43.5
489.222	43.51
489.566	43.29
489.911	43.35
490.255	43.32
490.6	43.33
490.944	43.07
491.288	43.06
491.633	42.93
491.977	42.78
492.321	42.69
492.665	42.49
493.009	42.18
493.353	41.99
493.697	41.92
494.041	41.78
494.385	41.76
494.729	41.77
495.073	41.7
495.417	41.57
495.76	41.5
496.104	41.37
496.448	41.32
496.791	41.2
497.135	40.99
497.479	40.99
497.822	40.81
498.165	40.67
498.509	40.41
498.852	40.2
499.196	40.07
499.539	40.09
499.882	39.91
500.225	39.84
500.568	39.76
500.911	39.7
501.254	39.78
501.597	39.84
501.94	39.69
502.283	39.62
502.626	39.56
502.969	39.29
503.312	39.05
503.654	39.01
503.997	38.88
504.34	38.92
504.682	38.78
505.025	38.74
505.367	38.66
505.71	38.56
506.052	38.4
506.395	38.34
506.737	38.38
507.079	38.3
507.421	38.26
507.764	38.15
508.106	37.99
508.448	37.95
508.79	37.84
509.132	37.86
509.474	37.66
509.816	37.36
510.158	37.22
510.499	37.2
510.841	37.02
511.183	36.95
511.525	36.9
511.866	36.95
512.208	36.72
512.549	36.7
512.891	36.64
513.232	36.63
513.574	36.57
513.915	36.52
514.256	36.43
514.598	36.39
514.939	36.22
515.28	36.03
515.621	35.95
515.962	35.88
516.303	35.8
516.644	35.86
516.985	35.7
517.326	35.59
517.667	35.43
518.008	35.31
518.349	35.37
518.69	35.35
519.03	35.27
519.371	35.17
519.712	35.04
520.052	35.13
520.393	35.14
520.733	35.32
521.074	35.14
521.414	34.9
521.754	34.65
522.095	34.44
522.435	34.3
522.775	34.21
523.115	34.2
523.455	34.18
523.795	34.16
524.135	34.09
524.475	34
524.815	33.92
525.155	33.82
525.495	33.7
525.835	33.57
526.175	33.47
526.514	33.61
526.854	33.54
527.194	33.38
527.533	33.26
527.873	33.19
528.212	32.96
528.552	32.93
528.891	32.62
529.23	32.44
529.57	32.4
529.909	32.27
530.248	32.29
530.587	32.31
530.927	32.2
531.266	32.16
531.605	31.84
531.944	31.74
532.283	31.62
532.621	31.51
532.96	31.43
533.299	31.34
533.638	31.18
533.977	31.08
534.315	31.01
534.654	30.88
534.992	30.71
535.331	30.46
535.67	30.36
536.008	30.29
536.346	30.2
536.685	30.2
537.023	29.97
537.361	29.87
537.7	29.71
538.038	29.66
538.376	29.78
538.714	29.69
539.052	29.59
539.39	29.6
539.728	29.56
540.066	29.45
540.404	29.44
540.741	29.45
541.079	29.25
541.417	29.25
541.755	29.16
542.092	29.01
542.43	29.13
542.767	29.03
543.105	29.11
543.442	29.05
543.78	29.15
544.117	29.08
544.454	29.09
544.792	29.16
545.129	29.09
545.466	29.01
545.803	29.03
546.14	29.05
546.477	28.97
546.814	28.91
547.151	28.95
547.488	28.91
547.825	28.83
548.162	28.87
548.499	28.9
548.835	28.78
549.172	28.69
549.509	28.78
549.845	28.64
550.182	28.58
550.518	28.63
550.855	28.57
551.191	28.62
551.528	28.56
551.864	28.46
552.2	28.48
552.537	28.59
552.873	28.48
553.209	28.52
553.545	28.5
553.881	28.68
554.217	28.78
554.553	28.84
554.889	28.91
555.225	28.82
555.561	28.74
555.896	28.75
556.232	28.82
556.568	28.83
556.903	28.98
557.239	29
557.575	29.19
557.91	29.21
558.245	29.37
558.581	29.46
558.916	29.66
559.252	29.61
559.587	29.64
559.922	29.59
560.257	29.69
560.592	29.65
560.928	29.62
561.263	29.78
561.598	29.73
561.933	29.74
562.267	29.7
562.602	29.67
562.937	29.56
563.272	29.54
563.607	29.5
563.941	29.43
564.276	29.32
564.611	29.35
564.945	29.26
565.28	29.29
565.614	29.38
565.949	29.27
566.283	29.34
566.617	29.2
566.951	29.29
567.286	29.33
567.62	29.4
567.954	29.4
568.288	29.52
568.622	29.56
568.956	29.7
569.29	29.81
569.624	29.77
569.958	29.81
570.292	29.94
570.626	30.04
570.959	30.03
571.293	30.13
571.627	30.15
571.96	30.32
572.294	30.36
572.627	30.49
572.961	30.54
573.294	30.62
573.627	30.69
573.961	30.76
574.294	30.72
574.627	30.78
574.961	30.89
575.294	30.89
575.627	30.82
575.96	30.84
576.293	30.87
576.626	30.88
576.959	31
577.292	30.98
577.624	30.97
577.957	30.92
578.29	31
578.623	31.09
578.955	31.11
579.288	31.26
579.62	31.36
579.953	31.45
580.285	31.46
580.618	31.66
580.95	31.67
581.282	31.62
581.615	31.63
581.947	31.71
582.279	31.73
582.611	31.82
582.943	31.86
583.275	31.9
583.607	31.96
583.939	32.1
584.271	32.21
584.603	32.32
584.935	32.34
585.267	32.29
585.598	32.35
585.93	32.42
586.262	32.74
586.593	32.8
586.925	32.73
587.256	32.8
587.588	32.81
587.919	32.79
588.25	32.85
588.582	32.96
588.913	32.98
589.244	33.1
589.575	33.35
589.907	33.43
590.238	33.47
590.569	33.68
590.9	33.92
591.231	33.96
591.562	34.12
591.892	34.27
592.223	34.37
592.554	34.44
592.885	34.44
593.215	34.69
593.546	34.74
593.877	34.7
594.207	34.88
594.538	34.93
594.868	35.07
595.198	35.4
595.529	35.53
595.859	35.57
596.189	35.71
596.52	35.93
596.85	35.98
597.18	36.08
597.51	36.09
597.84	36.04
598.17	36.26
598.5	36.33
598.83	36.52
599.16	36.63
599.489	36.74
599.819	36.96
600.149	37.1
600.479	37.34
600.808	37.53
601.138	37.76
601.467	37.87
601.797	38.15
602.126	38.49
602.456	38.69
602.785	38.88
603.114	39.12
603.443	39.2
603.773	39.43
604.102	39.78
604.431	40.04
604.76	40.3
605.089	40.55
605.418	40.68
605.747	41.07
606.076	41.31
606.405	41.47
606.733	41.69
607.062	41.8
607.391	42
607.72	42.41
608.048	42.6
608.377	42.66
608.705	42.83
609.034	43.01
609.362	43.3
609.69	43.52
610.019	43.96
610.347	44.15
610.675	44.12
611.004	44.36
611.332	44.6
611.66	44.95
611.988	45.19
612.316	45.3
612.644	45.46
612.972	45.56
613.3	45.84
613.627	46.06
613.955	46.4
614.283	46.72
614.611	46.95
614.938	47.11
615.266	47.19
615.593	47.4
615.921	47.55
616.248	47.71
616.576	48.31
616.903	48.72
617.23	49.04
617.558	49.54
617.885	49.81
618.212	49.96
618.539	50.39
618.866	50.9
619.193	50.98
619.52	50.88
619.847	51.06
620.174	51.17
620.501	51.09
620.828	50.96
621.155	51.09
621.481	50.99
621.808	51.21
622.135	51.26
622.461	51.36
622.788	51.19
623.114	51.54
623.441	51.79
623.767	51.94
624.093	51.73
624.42	52.2
624.746	52.2
625.072	52.06
625.398	52.32
625.725	52.33
626.051	52.47
626.377	52.41
626.703	52.18
627.029	51.97
627.354	51.94
627.68	52.79
628.006	52.65
628.332	52.74
628.658	53.45
628.983	53.55
629.309	53.75
629.634	54.07
629.96	54.73
630.285	54.86
630.611	54.89
630.936	55.64
631.262	55.54
631.587	55.51
631.912	55.28
632.237	56.05
632.562	56.13
632.887	56.31
633.213	56.66
633.538	56.76
633.863	57.01
634.187	56.85
634.512	57.01
634.837	57.2
635.162	57.43
635.487	57.56
635.811	56.92
636.136	57.32
636.461	57.42
636.785	57.2
637.11	58.23
637.434	57.62
637.758	58.12
638.083	57.47
638.407	57.04
638.731	57.27
639.056	57.17
639.38	57.27
639.704	57.84
640.028	58.36
640.352	58.03
640.676	57.21
641	57.5
641.324	57.23
641.648	57.03
641.972	57.48
642.295	58.31
642.619	58.3
642.943	58.39
643.266	58.43
643.59	58.7
643.913	58.21
644.237	57.53
644.56	57.1
644.884	57.53
645.207	57.43
645.53	58.28
645.854	57.95
646.177	57.99
646.5	58.27
646.823	58.04
647.146	58.28
647.469	58.34
647.792	58.38
648.115	58.71
648.438	58.72
648.761	59.31
649.084	59.51
649.406	59.29
649.729	58.99
650.052	58.85
650.374	58.69
650.697	58.66
651.019	58.57
651.342	58.7
651.664	58.74
651.987	58.93
652.309	59.21
652.631	59.43
652.953	59.48
653.276	59.3
653.598	59.26
653.92	59.18
654.242	59.42
654.564	59.31
654.886	59.42
655.208	59.33
655.53	59.25
655.851	59.27
656.173	59.18
656.495	59.47
656.816	59.33
657.138	59.32
657.46	59.45
657.781	60.25
