Data from T2_Reflection__39__00-45-46-940.txt Node

Date: Fri Jun 04 00:45:46 CEST 2021
User: mabdelazizm
Spectrometer: FLMS18565
Trigger mode: 0
Integration Time (sec): 2.000000E0
Scans to average: 1
Electric dark correction enabled: true
Nonlinearity correction enabled: false
Boxcar width: 12
XAxis mode: Wavelengths
Number of Pixels in Spectrum: 2048
>>>>>Begin Spectral Data<<<<<
179.071	479.37
179.452	191.98
179.833	201
180.214	2350
180.595	120.58
180.977	193.6
181.358	6.12
181.739	203.03
182.12	44.71
182.501	10.25
182.882	26.83
183.262	34.91
183.643	25.78
184.024	21.88
184.405	40.47
184.786	43.59
185.166	50.24
185.547	36.84
185.927	43.42
186.308	50.64
186.689	53.72
187.069	56.42
187.449	53.96
187.83	48.45
188.21	38.87
188.59	44.85
188.971	45.01
189.351	49.54
189.731	44.5
190.111	42.21
190.491	43.42
190.871	36.85
191.251	37.74
191.631	38.87
192.011	37.68
192.391	33.53
192.771	37.75
193.151	37.11
193.531	35.86
193.91	35.09
194.29	33.96
194.67	34.02
195.049	35.88
195.429	30.74
195.808	28.02
196.188	25.15
196.567	22.46
196.946	27.08
197.326	26.73
197.705	30.38
198.084	26.73
198.464	21.89
198.843	18.05
199.222	22
199.601	21.95
199.98	23.38
200.359	26.21
200.738	26.78
201.117	26.06
201.496	26.01
201.875	27.35
202.254	23.46
202.632	21.99
203.011	24.57
203.39	20.48
203.768	18.34
204.147	16.04
204.525	15.14
204.904	16.36
205.282	16.59
205.661	17.9
206.039	19.04
206.418	18.38
206.796	20.63
207.174	23.12
207.552	26.4
207.931	26.51
208.309	24.14
208.687	22.78
209.065	21.73
209.443	18.72
209.821	18.48
210.199	17.73
210.577	17.4
210.954	16.82
211.332	16.54
211.71	16.83
212.088	17.05
212.465	17.59
212.843	18.38
213.221	18.1
213.598	19.89
213.976	18.88
214.353	18.51
214.731	18.65
215.108	19.23
215.485	18.63
215.863	15.72
216.24	13
216.617	12.31
216.994	11.02
217.371	12.11
217.749	13.87
218.126	11.65
218.503	13.09
218.88	14.42
219.256	13.88
219.633	12.85
220.01	11.63
220.387	11.92
220.764	12.64
221.14	12
221.517	12.63
221.894	10.92
222.27	11.26
222.647	11.64
223.023	10.56
223.4	10.4
223.776	9.4
224.153	9.06
224.529	7.85
224.905	7.83
225.282	8.56
225.658	9.28
226.034	8.65
226.41	8.42
226.786	8.08
227.162	7.52
227.538	7.77
227.914	7.1
228.29	6.78
228.666	6.05
229.042	5.59
229.418	5.83
229.793	5.37
230.169	4.83
230.545	4.74
230.92	4.57
231.296	4.73
231.672	4.58
232.047	4.71
232.422	4.65
232.798	4.56
233.173	4.71
233.549	4.87
233.924	5.03
234.299	5.12
234.674	5.04
235.05	4.85
235.425	4.74
235.8	4.45
236.175	4.4
236.55	4.38
236.925	4.42
237.3	4.27
237.675	4.25
238.049	4.28
238.424	4.42
238.799	4.35
239.174	4.45
239.548	4.48
239.923	4.46
240.297	4.3
240.672	4.2
241.046	4.23
241.421	4.2
241.795	4.03
242.17	3.97
242.544	3.83
242.918	3.77
243.293	3.63
243.667	3.59
244.041	3.54
244.415	3.55
244.789	3.59
245.163	3.58
245.537	3.58
245.911	3.6
246.285	3.58
246.659	3.52
247.033	3.42
247.406	3.43
247.78	3.39
248.154	3.39
248.528	3.36
248.901	3.34
249.275	3.31
249.648	3.4
250.022	3.42
250.395	3.34
250.769	3.28
251.142	3.36
251.515	3.36
251.888	3.37
252.262	3.3
252.635	3.39
253.008	3.33
253.381	3.2
253.754	3.12
254.127	3.08
254.5	3.07
254.873	3.05
255.246	3.1
255.619	3.09
255.992	3.17
256.364	3.15
256.737	3.07
257.11	3.02
257.483	2.95
257.855	2.96
258.228	2.98
258.6	2.99
258.973	2.92
259.345	2.81
259.718	2.78
260.09	2.77
260.462	2.72
260.834	2.72
261.207	2.72
261.579	2.76
261.951	2.73
262.323	2.68
262.695	2.74
263.067	2.79
263.439	2.79
263.811	2.81
264.183	2.77
264.555	2.74
264.927	2.68
265.298	2.68
265.67	2.7
266.042	2.67
266.413	2.63
266.785	2.67
267.156	2.68
267.528	2.6
267.899	2.55
268.271	2.6
268.642	2.69
269.013	2.74
269.385	2.65
269.756	2.56
270.127	2.57
270.498	2.61
270.87	2.49
271.241	2.39
271.612	2.39
271.983	2.39
272.354	2.37
272.724	2.28
273.095	2.32
273.466	2.28
273.837	2.22
274.208	2.24
274.578	2.13
274.949	2.04
275.32	2.03
275.69	2.03
276.061	2.05
276.431	2.03
276.802	2.01
277.172	2.03
277.542	1.92
277.913	1.85
278.283	1.83
278.653	1.85
279.023	1.94
279.394	1.91
279.764	1.9
280.134	1.98
280.504	1.99
280.874	2
281.244	1.93
281.614	1.94
281.983	1.96
282.353	1.92
282.723	1.99
283.093	1.96
283.462	2
283.832	2.04
284.202	2.11
284.571	2.13
284.941	2.19
285.31	2.15
285.68	2.18
286.049	2.19
286.418	2.1
286.788	2.16
287.157	2.26
287.526	2.25
287.895	2.27
288.264	2.19
288.633	2.11
289.002	2.05
289.371	2.02
289.74	2.06
290.109	2.03
290.478	2.04
290.847	2.01
291.216	1.98
291.585	1.91
291.953	1.86
292.322	1.87
292.691	1.77
293.059	1.76
293.428	1.7
293.796	1.67
294.165	1.61
294.533	1.53
294.901	1.56
295.27	1.55
295.638	1.66
296.006	1.62
296.374	1.5
296.743	1.5
297.111	1.57
297.479	1.64
297.847	1.64
298.215	1.63
298.583	1.58
298.95	1.51
299.318	1.51
299.686	1.49
300.054	1.44
300.422	1.41
300.789	1.49
301.157	1.47
301.525	1.43
301.892	1.5
302.26	1.53
302.627	1.58
302.994	1.54
303.362	1.58
303.729	1.63
304.097	1.51
304.464	1.49
304.831	1.36
305.198	1.33
305.565	1.3
305.932	1.22
306.299	1.15
306.666	1.13
307.033	1.18
307.4	1.21
307.767	1.14
308.134	1.2
308.501	1.14
308.867	1.09
309.234	1.07
309.601	1.07
309.967	1.03
310.334	1.01
310.701	1.03
311.067	0.99
311.433	1.01
311.8	0.98
312.166	1.01
312.533	0.96
312.899	0.95
313.265	0.91
313.631	0.93
313.997	1
314.363	0.94
314.729	0.93
315.096	1.04
315.461	1.01
315.827	1.01
316.193	0.98
316.559	0.89
316.925	0.97
317.291	0.89
317.656	0.94
318.022	1.04
318.388	0.98
318.753	0.99
319.119	0.99
319.484	1.02
319.85	0.93
320.215	0.97
320.581	0.92
320.946	0.92
321.311	0.94
321.676	0.94
322.042	0.92
322.407	0.91
322.772	0.84
323.137	0.85
323.502	0.89
323.867	0.96
324.232	0.87
324.597	0.92
324.962	0.89
325.327	0.92
325.691	1.02
326.056	1.01
326.421	1.06
326.785	1.12
327.15	1.08
327.514	1.16
327.879	1.21
328.243	1.21
328.608	1.26
328.972	1.36
329.337	1.29
329.701	1.24
330.065	1.26
330.429	1.23
330.794	1.24
331.158	1.37
331.522	1.49
331.886	1.53
332.25	1.47
332.614	1.48
332.978	1.44
333.342	1.46
333.705	1.46
334.069	1.49
334.433	1.46
334.797	1.35
335.16	1.39
335.524	1.37
335.887	1.21
336.251	1.14
336.614	1.15
336.978	1.14
337.341	1.13
337.705	1.08
338.068	1.14
338.431	1.12
338.794	1.12
339.158	1.11
339.521	1.08
339.884	1.05
340.247	0.92
340.61	0.85
340.973	0.77
341.336	0.84
341.699	0.87
342.062	0.87
342.424	0.79
342.787	0.76
343.15	0.68
343.512	0.73
343.875	0.8
344.238	0.75
344.6	0.73
344.963	0.8
345.325	0.83
345.688	0.79
346.05	0.75
346.412	0.74
346.775	0.79
347.137	0.72
347.499	0.78
347.861	0.81
348.223	0.85
348.585	0.92
348.947	0.93
349.309	0.94
349.671	0.88
350.033	1.02
350.395	1.01
350.757	1.1
351.118	1.14
351.48	1.29
351.842	1.24
352.203	1.33
352.565	1.25
352.927	1.29
353.288	1.3
353.65	1.3
354.011	1.32
354.372	1.3
354.734	1.36
355.095	1.4
355.456	1.43
355.817	1.38
356.179	1.34
356.54	1.28
356.901	1.31
357.262	1.26
357.623	1.25
357.984	1.3
358.345	1.32
358.705	1.34
359.066	1.27
359.427	1.24
359.788	1.25
360.148	1.16
360.509	1.02
360.87	1.05
361.23	1.05
361.591	1.06
361.951	1.13
362.312	1.13
362.672	1.16
363.032	1.17
363.393	1.12
363.753	1.09
364.113	1.01
364.473	1.01
364.833	0.98
365.193	0.97
365.553	0.99
365.913	0.99
366.273	1.02
366.633	0.97
366.993	0.93
367.353	0.88
367.713	0.95
368.072	0.98
368.432	0.85
368.792	0.74
369.151	0.79
369.511	0.82
369.87	0.82
370.23	0.81
370.589	0.83
370.949	0.7
371.308	0.73
371.667	0.79
372.027	0.79
372.386	0.93
372.745	0.97
373.104	1.03
373.463	0.99
373.822	1.01
374.181	1.04
374.54	1.02
374.899	1.04
375.258	1.01
375.617	1.02
375.975	1.1
376.334	1.13
376.693	1.15
377.052	1.14
377.41	1.34
377.769	1.41
378.127	1.43
378.486	1.45
378.844	1.58
379.202	1.6
379.561	1.59
379.919	1.51
380.277	1.52
380.636	1.51
380.994	1.55
381.352	1.57
381.71	1.55
382.068	1.57
382.426	1.55
382.784	1.64
383.142	1.67
383.5	1.74
383.857	1.81
384.215	1.88
384.573	1.98
384.931	1.95
385.288	1.99
385.646	2.03
386.003	2.06
386.361	2.03
386.718	1.98
387.076	1.98
387.433	2
387.791	1.9
388.148	1.96
388.505	2.06
388.862	2.16
389.22	2.23
389.577	2.26
389.934	2.25
390.291	2.29
390.648	2.39
391.005	2.56
391.362	2.76
391.718	2.75
392.075	2.79
392.432	2.96
392.789	2.97
393.145	3.04
393.502	3.19
393.859	3.29
394.215	3.29
394.572	3.39
394.928	3.45
395.285	3.55
395.641	3.73
395.997	3.96
396.354	4.14
396.71	4.38
397.066	4.48
397.422	4.67
397.778	4.96
398.134	5.12
398.491	5.26
398.846	5.56
399.202	5.79
399.558	5.97
399.914	6.08
400.27	6.18
400.626	6.39
400.981	6.72
401.337	6.93
401.693	7.2
402.048	7.44
402.404	7.6
402.759	7.88
403.115	8.23
403.47	8.57
403.826	9.05
404.181	9.35
404.536	9.7
404.892	9.97
405.247	10.25
405.602	10.53
405.957	10.95
406.312	11.28
406.667	11.53
407.022	11.88
407.377	12.25
407.732	12.56
408.087	12.9
408.442	13.37
408.796	13.8
409.151	14.31
409.506	14.81
409.86	15.22
410.215	15.71
410.57	16.16
410.924	16.65
411.279	17.14
411.633	17.71
411.987	18.2
412.342	18.65
412.696	19.04
413.05	19.61
413.404	20.15
413.758	20.72
414.113	21.36
414.467	21.81
414.821	22.34
415.175	22.93
415.529	23.56
415.882	24.02
416.236	24.55
416.59	25.11
416.944	25.72
417.298	26.24
417.651	26.66
418.005	27.16
418.358	27.76
418.712	28.3
419.065	28.75
419.419	29.27
419.772	29.68
420.126	30.17
420.479	30.51
420.832	31.06
421.185	31.41
421.539	31.75
421.892	32.06
422.245	32.33
422.598	32.71
422.951	33.17
423.304	33.6
423.657	34
424.01	34.38
424.363	34.72
424.715	35.21
425.068	35.68
425.421	36.11
425.773	36.37
426.126	36.76
426.479	37.3
426.831	37.57
427.184	37.8
427.536	38.12
427.889	38.47
428.241	38.74
428.593	39.17
428.945	39.55
429.298	39.96
429.65	40.17
430.002	40.42
430.354	40.9
430.706	41.31
431.058	41.66
431.41	42.07
431.762	42.19
432.114	42.51
432.466	42.77
432.817	43.09
433.169	43.28
433.521	43.59
433.872	43.79
434.224	43.94
434.576	44.18
434.927	44.38
435.279	44.55
435.63	44.88
435.981	45.07
436.333	45.21
436.684	45.43
437.035	45.55
437.387	45.49
437.738	45.57
438.089	45.63
438.44	45.67
438.791	45.97
439.142	45.97
439.493	46.13
439.844	46.17
440.195	46.13
440.545	46.2
440.896	46.27
441.247	46.34
441.598	46.22
441.948	46.39
442.299	46.29
442.649	46.36
443	46.53
443.35	46.6
443.701	46.54
444.051	46.62
444.401	46.67
444.752	46.74
445.102	46.76
445.452	46.66
445.802	46.79
446.152	46.99
446.502	47.03
446.852	47.09
447.202	47.16
447.552	47.12
447.902	47.07
448.252	47.13
448.602	46.27
448.952	46.33
449.301	46.34
449.651	46.44
450.001	46.51
450.35	46.68
450.7	46.66
451.049	46.77
451.399	46.84
451.748	46.68
452.097	46.78
452.447	46.73
452.796	46.72
453.145	46.65
453.494	46.69
453.843	46.59
454.193	46.62
454.542	46.62
454.891	46.49
455.239	46.42
455.588	46.21
455.937	46.27
456.286	46.43
456.635	46.47
456.984	46.49
457.332	47.57
457.681	47.61
458.03	47.55
458.378	47.43
458.727	47.34
459.075	47.3
459.423	47.37
459.772	47.23
460.12	47.13
460.468	47.23
460.817	47.14
461.165	47.17
461.513	47.1
461.861	47.12
462.209	46.94
462.557	47.05
462.905	46.96
463.253	46.83
463.601	46.93
463.949	46.88
464.297	46.9
464.644	46.85
464.992	46.56
465.34	46.59
465.687	46.45
466.035	46.29
466.383	46.16
466.73	46.24
467.078	46.16
467.425	46
467.772	45.99
468.12	45.81
468.467	45.81
468.814	45.88
469.161	45.61
469.508	45.48
469.856	45.31
470.203	45.1
470.55	44.95
470.897	44.78
471.243	44.7
471.59	44.55
471.937	44.41
472.284	44.28
472.631	44.08
472.977	43.88
473.324	43.87
473.671	43.75
474.017	43.49
474.364	43.36
474.71	43.24
475.057	43.05
475.403	42.76
475.749	42.59
476.096	42.48
476.442	42.27
476.788	42.16
477.134	41.87
477.48	41.61
477.826	41.5
478.172	41.32
478.518	41.28
478.864	41.18
479.21	40.93
479.556	40.87
479.902	40.57
480.248	40.32
480.593	40.12
480.939	40
481.285	39.92
481.63	39.96
481.976	39.65
482.321	39.59
482.667	39.44
483.012	39.3
483.357	39.22
483.703	39.07
484.048	39.09
484.393	38.93
484.738	38.81
485.084	38.65
485.429	38.48
485.774	38.58
486.119	38.45
486.464	38.33
486.808	38.08
487.153	37.7
487.498	37.54
487.843	37.41
488.188	37.24
488.532	37.16
488.877	37.09
489.222	37
489.566	36.73
489.911	36.65
490.255	36.42
490.6	36.25
490.944	35.96
491.288	35.82
491.633	35.66
491.977	35.35
492.321	35.16
492.665	34.8
493.009	34.64
493.353	34.46
493.697	34.24
494.041	34.13
494.385	33.88
494.729	33.74
495.073	33.55
495.417	33.55
495.76	33.52
496.104	33.33
496.448	33.12
496.791	32.81
497.135	32.65
497.479	32.49
497.822	32.27
498.165	32.11
498.509	31.83
498.852	31.63
499.196	31.54
499.539	31.37
499.882	31.17
500.225	30.93
500.568	30.73
500.911	30.53
501.254	30.46
501.597	30.38
501.94	30.24
502.283	30.06
502.626	29.92
502.969	29.66
503.312	29.46
503.654	29.32
503.997	29.08
504.34	28.94
504.682	28.81
505.025	28.8
505.367	28.77
505.71	28.47
506.052	28.28
506.395	28.16
506.737	27.97
507.079	27.89
507.421	27.72
507.764	27.55
508.106	27.53
508.448	27.48
508.79	27.38
509.132	27.37
509.474	27.26
509.816	27.07
510.158	26.88
510.499	26.72
510.841	26.68
511.183	26.55
511.525	26.46
511.866	26.49
512.208	26.33
512.549	26.21
512.891	26.08
513.232	25.98
513.574	25.75
513.915	25.6
514.256	25.59
514.598	25.53
514.939	25.37
515.28	25.28
515.621	25.05
515.962	24.91
516.303	24.93
516.644	24.71
516.985	24.53
517.326	24.32
517.667	24.19
518.008	24.14
518.349	24.12
518.69	24.07
519.03	23.87
519.371	23.71
519.712	23.57
520.052	23.51
520.393	23.22
520.733	23.16
521.074	23.1
521.414	22.99
521.754	22.86
522.095	22.74
522.435	22.62
522.775	22.49
523.115	22.43
523.455	22.33
523.795	22.31
524.135	22.2
524.475	22.08
524.815	21.78
525.155	21.78
525.495	21.62
525.835	21.64
526.175	21.56
526.514	21.35
526.854	21.23
527.194	21.12
527.533	21.08
527.873	21.03
528.212	20.88
528.552	20.79
528.891	20.77
529.23	20.65
529.57	20.48
529.909	20.48
530.248	20.31
530.587	20.24
530.927	20.17
531.266	20.06
531.605	19.8
531.944	19.81
532.283	19.73
532.621	19.64
532.96	19.65
533.299	19.7
533.638	19.57
533.977	19.5
534.315	19.42
534.654	19.27
534.992	19.22
535.331	19.08
535.67	18.86
536.008	18.84
536.346	18.64
536.685	18.6
537.023	18.45
537.361	18.21
537.7	18.13
538.038	18.15
538.376	17.91
538.714	17.97
539.052	17.95
539.39	17.96
539.728	17.98
540.066	17.97
540.404	17.84
540.741	17.62
541.079	17.56
541.417	17.5
541.755	17.34
542.092	17.26
542.43	17.25
542.767	17.1
543.105	17.16
543.442	17.04
543.78	17.09
544.117	17.05
544.454	16.87
544.792	16.93
545.129	16.88
545.466	16.86
545.803	16.95
546.14	17.02
546.477	16.95
546.814	17.02
547.151	16.99
547.488	16.9
547.825	16.69
548.162	16.69
548.499	16.76
548.835	16.88
549.172	16.87
549.509	16.81
549.845	16.72
550.182	16.69
550.518	16.56
550.855	16.63
551.191	16.79
551.528	16.71
551.864	16.86
552.2	16.82
552.537	16.89
552.873	17.02
553.209	16.88
553.545	16.78
553.881	16.81
554.217	16.76
554.553	16.7
554.889	16.62
555.225	16.51
555.561	16.38
555.896	16.41
556.232	16.45
556.568	16.47
556.903	16.44
557.239	16.31
557.575	16.47
557.91	16.57
558.245	16.67
558.581	16.79
558.916	16.87
559.252	16.78
559.587	16.63
559.922	16.68
560.257	16.78
560.592	16.85
560.928	16.83
561.263	16.87
561.598	16.97
561.933	17.02
562.267	17.19
562.602	17.22
562.937	17.28
563.272	17.4
563.607	17.4
563.941	17.55
564.276	17.46
564.611	17.62
564.945	17.64
565.28	17.7
565.614	17.81
565.949	17.63
566.283	17.64
566.617	17.53
566.951	17.62
567.286	17.76
567.62	17.8
567.954	17.9
568.288	17.93
568.622	17.89
568.956	17.91
569.29	17.97
569.624	17.92
569.958	17.94
570.292	18
570.626	17.97
570.959	18
571.293	18.02
571.627	18.12
571.96	18.31
572.294	18.28
572.627	18.45
572.961	18.54
573.294	18.59
573.627	18.64
573.961	18.63
574.294	18.73
574.627	18.81
574.961	19.02
575.294	18.99
575.627	18.88
575.96	18.88
576.293	18.94
576.626	19.04
576.959	19.09
577.292	19.1
577.624	19.19
577.957	19.27
578.29	19.37
578.623	19.45
578.955	19.45
579.288	19.51
579.62	19.54
579.953	19.59
580.285	19.63
580.618	19.8
580.95	19.78
581.282	19.7
581.615	19.65
581.947	19.7
582.279	19.83
582.611	19.93
582.943	19.95
583.275	19.87
583.607	19.95
583.939	20.09
584.271	20.22
584.603	20.31
584.935	20.3
585.267	20.37
585.598	20.49
585.93	20.58
586.262	20.7
586.593	20.83
586.925	20.98
587.256	21.07
587.588	21.18
587.919	21.26
588.25	21.27
588.582	21.24
588.913	21.22
589.244	21.4
589.575	21.64
589.907	21.8
590.238	21.86
590.569	21.91
590.9	22.06
591.231	22.22
591.562	22.43
591.892	22.62
592.223	22.8
592.554	22.92
592.885	22.86
593.215	23.15
593.546	23.25
593.877	23.23
594.207	23.33
594.538	23.34
594.868	23.51
595.198	23.58
595.529	23.69
595.859	23.73
596.189	23.97
596.52	24.19
596.85	24.3
597.18	24.48
597.51	24.51
597.84	24.54
598.17	24.67
598.5	24.74
598.83	25.06
599.16	25.14
599.489	25.3
599.819	25.45
600.149	25.66
600.479	25.92
600.808	26.21
601.138	26.51
601.467	26.57
601.797	26.81
602.126	27.18
602.456	27.52
602.785	27.82
603.114	28.09
603.443	28.36
603.773	28.68
604.102	29.04
604.431	29.28
604.76	29.43
605.089	29.78
605.418	29.94
605.747	30.37
606.076	30.68
606.405	31
606.733	31.3
607.062	31.51
607.391	31.81
607.72	32.08
608.048	32.56
608.377	32.83
608.705	33.13
609.034	33.47
609.362	33.88
609.69	34.26
610.019	34.57
610.347	34.87
610.675	34.82
611.004	34.96
611.332	35.28
611.66	35.69
611.988	35.86
612.316	35.98
612.644	36.01
612.972	36.31
613.3	36.41
613.627	36.76
613.955	37.08
614.283	37.36
614.611	37.59
614.938	37.81
615.266	37.97
615.593	38.28
615.921	38.73
616.248	38.89
616.576	39.37
616.903	39.8
617.23	39.94
617.558	40.39
617.885	40.87
618.212	41.42
618.539	41.91
618.866	42.46
619.193	42.83
619.52	42.84
619.847	42.8
620.174	43.27
620.501	43.53
620.828	44.06
621.155	44.46
621.481	44.84
621.808	45.25
622.135	45.24
622.461	45.5
622.788	45.63
623.114	46.23
623.441	46.46
623.767	46.75
624.093	46.9
624.42	47.16
624.746	47.36
625.072	47.42
625.398	48
625.725	48.31
626.051	48.62
626.377	48.87
626.703	48.91
627.029	49.23
627.354	50.06
627.68	50.34
628.006	50.49
628.332	50.73
628.658	51.59
628.983	52.05
629.309	52.42
629.634	53.39
629.96	53.32
630.285	53.75
630.611	53.73
630.936	54.37
631.262	54.75
631.587	55.01
631.912	55.52
632.237	55.93
632.562	56.24
632.887	56.1
633.213	56.22
633.538	56.66
633.863	57
634.187	57.3
634.512	57.28
634.837	57.1
635.162	56.84
635.487	55.96
635.811	56.5
636.136	57.16
636.461	57.45
636.785	57.4
637.11	57.76
637.434	57.49
637.758	57.64
638.083	57.97
638.407	58.28
638.731	58.44
639.056	58.37
639.38	57.83
639.704	58.31
640.028	58.27
640.352	58.29
640.676	58.2
641	58.7
641.324	58.99
641.648	58.2
641.972	58.89
642.295	58.93
642.619	59.06
642.943	59.43
643.266	59.82
643.59	60.84
643.913	60.87
644.237	60.66
644.56	60.56
644.884	60.67
645.207	60.63
645.53	61.23
645.854	60.59
646.177	61.15
646.5	61.29
646.823	61.93
647.146	61.98
647.469	62.68
647.792	62.79
648.115	62.99
648.438	63.53
648.761	65
649.084	65.66
649.406	66.19
649.729	66.08
650.052	65.86
650.374	65.84
650.697	65.92
651.019	65.94
651.342	66.23
651.664	66.22
651.987	66.19
652.309	66.52
652.631	66.77
652.953	66.98
653.276	66.92
653.598	67.17
653.92	67.19
654.242	67.42
654.564	67.5
654.886	67.62
655.208	67.65
655.53	67.39
655.851	67.41
656.173	67.43
656.495	67.53
656.816	67.34
657.138	67.62
657.46	67.89
657.781	69.71
