Data from T2_Reflection__117__01-51-16-815.txt Node

Date: Fri Jun 04 01:51:16 CEST 2021
User: mabdelazizm
Spectrometer: FLMS18565
Trigger mode: 0
Integration Time (sec): 2.000000E0
Scans to average: 1
Electric dark correction enabled: true
Nonlinearity correction enabled: false
Boxcar width: 12
XAxis mode: Wavelengths
Number of Pixels in Spectrum: 2048
>>>>>Begin Spectral Data<<<<<
179.071	859.64
179.452	381.01
179.833	360.68
180.214	5300
180.595	314.75
180.977	493.1
181.358	3630.61
181.739	-1057.58
182.12	-160.03
182.501	-137.36
182.882	-123.49
183.262	-94.08
183.643	-52.11
184.024	-46.82
184.405	-10.25
184.786	10.94
185.166	20.75
185.547	26.83
185.927	40.26
186.308	38.2
186.689	44.94
187.069	42.19
187.449	42.28
187.83	37.35
188.21	39.88
188.59	42.23
188.971	41.26
189.351	36.87
189.731	37.37
190.111	40.56
190.491	40.56
190.871	38.52
191.251	41.53
191.631	40.81
192.011	39.88
192.391	40.46
192.771	45.33
193.151	42.66
193.531	43
193.91	42.32
194.29	40.07
194.67	40.45
195.049	40.12
195.429	36.71
195.808	36.92
196.188	31.91
196.567	32.72
196.946	33.63
197.326	32.41
197.705	32.52
198.084	33.68
198.464	31.91
198.843	34.25
199.222	37.76
199.601	35.3
199.98	36.63
200.359	38.53
200.738	37.19
201.117	35.55
201.496	33.75
201.875	32.12
202.254	28.67
202.632	27.8
203.011	28.91
203.39	26.61
203.768	25.95
204.147	25.57
204.525	23.4
204.904	21.45
205.282	21.63
205.661	22.91
206.039	24.3
206.418	23.79
206.796	23.68
207.174	24.84
207.552	24.44
207.931	23.43
208.309	22.24
208.687	17.4
209.065	18.48
209.443	18.4
209.821	16.86
210.199	15.1
210.577	16.83
210.954	18.63
211.332	19.32
211.71	18.99
212.088	19.28
212.465	18.21
212.843	19.07
213.221	18.51
213.598	20.75
213.976	19.78
214.353	22.32
214.731	20.99
215.108	22.47
215.485	21.3
215.863	20.64
216.24	19.31
216.617	17.9
216.994	18.06
217.371	18.38
217.749	18.99
218.126	17.77
218.503	16.98
218.88	16.29
219.256	16.26
219.633	14.22
220.01	12.27
220.387	11.62
220.764	11.57
221.14	11.3
221.517	11.18
221.894	10.22
222.27	9.66
222.647	9.98
223.023	7.91
223.4	7.9
223.776	6.59
224.153	7.08
224.529	5.96
224.905	5.34
225.282	5.14
225.658	5.54
226.034	5.07
226.41	4.66
226.786	4.76
227.162	4.26
227.538	4.79
227.914	4.69
228.29	4.04
228.666	3.68
229.042	4.21
229.418	4.56
229.793	4.6
230.169	4.18
230.545	3.84
230.92	4.09
231.296	4.15
231.672	4.05
232.047	4.09
232.422	4.13
232.798	4.35
233.173	4.56
233.549	4.48
233.924	4.69
234.299	4.87
234.674	4.95
235.05	4.86
235.425	4.62
235.8	4.31
236.175	4.26
236.55	4.23
236.925	4.27
237.3	4.08
237.675	4.17
238.049	4.19
238.424	4.19
238.799	3.95
239.174	3.97
239.548	4.07
239.923	4.01
240.297	3.96
240.672	3.9
241.046	3.93
241.421	3.97
241.795	3.98
242.17	3.8
242.544	3.57
242.918	3.55
243.293	3.53
243.667	3.49
244.041	3.44
244.415	3.38
244.789	3.43
245.163	3.48
245.537	3.45
245.911	3.47
246.285	3.38
246.659	3.38
247.033	3.33
247.406	3.37
247.78	3.34
248.154	3.29
248.528	3.26
248.901	3.26
249.275	3.31
249.648	3.31
250.022	3.28
250.395	3.22
250.769	3.12
251.142	3.16
251.515	3.15
251.888	3.22
252.262	3.16
252.635	3.14
253.008	3.14
253.381	3.07
253.754	3.07
254.127	3.18
254.5	3.19
254.873	3.17
255.246	3.2
255.619	3.27
255.992	3.29
256.364	3.28
256.737	3.23
257.11	3.13
257.483	3.1
257.855	3.1
258.228	3.08
258.6	3.04
258.973	3.02
259.345	3.01
259.718	3.03
260.09	2.99
260.462	2.83
260.834	2.85
261.207	2.79
261.579	2.84
261.951	2.82
262.323	2.76
262.695	2.74
263.067	2.76
263.439	2.67
263.811	2.7
264.183	2.65
264.555	2.63
264.927	2.58
265.298	2.6
265.67	2.55
266.042	2.55
266.413	2.56
266.785	2.61
267.156	2.57
267.528	2.57
267.899	2.58
268.271	2.56
268.642	2.59
269.013	2.66
269.385	2.72
269.756	2.81
270.127	2.86
270.498	2.88
270.87	2.8
271.241	2.7
271.612	2.69
271.983	2.62
272.354	2.59
272.724	2.54
273.095	2.53
273.466	2.53
273.837	2.47
274.208	2.51
274.578	2.45
274.949	2.42
275.32	2.43
275.69	2.4
276.061	2.41
276.431	2.4
276.802	2.42
277.172	2.42
277.542	2.37
277.913	2.33
278.283	2.23
278.653	2.2
279.023	2.18
279.394	2.16
279.764	2.18
280.134	2.24
280.504	2.32
280.874	2.32
281.244	2.35
281.614	2.37
281.983	2.42
282.353	2.38
282.723	2.37
283.093	2.39
283.462	2.37
283.832	2.39
284.202	2.48
284.571	2.42
284.941	2.5
285.31	2.54
285.68	2.55
286.049	2.49
286.418	2.5
286.788	2.55
287.157	2.59
287.526	2.57
287.895	2.55
288.264	2.53
288.633	2.46
289.002	2.47
289.371	2.4
289.74	2.35
290.109	2.33
290.478	2.35
290.847	2.33
291.216	2.32
291.585	2.29
291.953	2.36
292.322	2.4
292.691	2.34
293.059	2.36
293.428	2.28
293.796	2.3
294.165	2.26
294.533	2.25
294.901	2.27
295.27	2.29
295.638	2.32
296.006	2.23
296.374	2.17
296.743	2.14
297.111	2.27
297.479	2.22
297.847	2.2
298.215	2.13
298.583	2.08
298.95	2.08
299.318	2.06
299.686	2.06
300.054	2.01
300.422	2
300.789	2.03
301.157	1.94
301.525	1.78
301.892	1.85
302.26	1.83
302.627	1.79
302.994	1.78
303.362	1.75
303.729	1.73
304.097	1.61
304.464	1.56
304.831	1.51
305.198	1.56
305.565	1.55
305.932	1.61
306.299	1.48
306.666	1.57
307.033	1.62
307.4	1.69
307.767	1.66
308.134	1.67
308.501	1.64
308.867	1.6
309.234	1.64
309.601	1.63
309.967	1.58
310.334	1.58
310.701	1.65
311.067	1.59
311.433	1.56
311.8	1.61
312.166	1.56
312.533	1.61
312.899	1.62
313.265	1.67
313.631	1.71
313.997	1.61
314.363	1.53
314.729	1.51
315.096	1.5
315.461	1.52
315.827	1.38
316.193	1.26
316.559	1.18
316.925	1.3
317.291	1.28
317.656	1.3
318.022	1.35
318.388	1.28
318.753	1.29
319.119	1.29
319.484	1.35
319.85	1.3
320.215	1.31
320.581	1.35
320.946	1.38
321.311	1.4
321.676	1.32
322.042	1.33
322.407	1.23
322.772	1.18
323.137	1.27
323.502	1.31
323.867	1.38
324.232	1.34
324.597	1.31
324.962	1.39
325.327	1.53
325.691	1.58
326.056	1.46
326.421	1.41
326.785	1.44
327.15	1.4
327.514	1.44
327.879	1.43
328.243	1.47
328.608	1.46
328.972	1.53
329.337	1.5
329.701	1.42
330.065	1.49
330.429	1.52
330.794	1.49
331.158	1.51
331.522	1.66
331.886	1.69
332.25	1.67
332.614	1.66
332.978	1.57
333.342	1.62
333.705	1.65
334.069	1.71
334.433	1.64
334.797	1.59
335.16	1.58
335.524	1.61
335.887	1.53
336.251	1.55
336.614	1.6
336.978	1.61
337.341	1.58
337.705	1.45
338.068	1.46
338.431	1.43
338.794	1.36
339.158	1.28
339.521	1.22
339.884	1.3
340.247	1.21
340.61	1.17
340.973	1.05
341.336	1.02
341.699	1.06
342.062	1.07
342.424	0.86
342.787	0.83
343.15	0.69
343.512	0.78
343.875	0.77
344.238	0.8
344.6	0.83
344.963	0.88
345.325	0.82
345.688	0.75
346.05	0.68
346.412	0.73
346.775	0.85
347.137	0.81
347.499	0.96
347.861	1.06
348.223	1.11
348.585	1.22
348.947	1.12
349.309	1.13
349.671	1.09
350.033	1.26
350.395	1.29
350.757	1.36
351.118	1.35
351.48	1.46
351.842	1.41
352.203	1.47
352.565	1.34
352.927	1.37
353.288	1.4
353.65	1.38
354.011	1.39
354.372	1.42
354.734	1.45
355.095	1.57
355.456	1.57
355.817	1.47
356.179	1.47
356.54	1.37
356.901	1.3
357.262	1.21
357.623	1.12
357.984	1.2
358.345	1.18
358.705	1.21
359.066	1.08
359.427	1.14
359.788	1.09
360.148	1.1
360.509	1.12
360.87	1.13
361.23	1.19
361.591	1.21
361.951	1.28
362.312	1.38
362.672	1.38
363.032	1.34
363.393	1.24
363.753	1.24
364.113	1.2
364.473	1.24
364.833	1.21
365.193	1.15
365.553	1.17
365.913	1.18
366.273	1.22
366.633	1.2
366.993	1.15
367.353	1.06
367.713	1.04
368.072	1.14
368.432	0.99
368.792	0.97
369.151	1.04
369.511	1.04
369.87	1.07
370.23	1.06
370.589	1.12
370.949	1.04
371.308	0.92
371.667	0.96
372.027	0.99
372.386	1.14
372.745	1.13
373.104	1.11
373.463	1.09
373.822	1.13
374.181	1.16
374.54	1.14
374.899	1.26
375.258	1.31
375.617	1.39
375.975	1.52
376.334	1.63
376.693	1.76
377.052	1.71
377.41	1.77
377.769	1.82
378.127	1.85
378.486	1.92
378.844	2.07
379.202	2.04
379.561	2.01
379.919	1.89
380.277	1.94
380.636	1.95
380.994	1.97
381.352	2.01
381.71	2.05
382.068	2.01
382.426	1.96
382.784	2.09
383.142	2.22
383.5	2.32
383.857	2.36
384.215	2.34
384.573	2.34
384.931	2.31
385.288	2.37
385.646	2.43
386.003	2.56
386.361	2.67
386.718	2.6
387.076	2.55
387.433	2.51
387.791	2.42
388.148	2.51
388.505	2.6
388.862	2.81
389.22	2.88
389.577	2.92
389.934	2.97
390.291	3
390.648	3.07
391.005	3.31
391.362	3.47
391.718	3.56
392.075	3.6
392.432	3.71
392.789	3.76
393.145	3.87
393.502	4.05
393.859	4.2
394.215	4.25
394.572	4.32
394.928	4.39
395.285	4.51
395.641	4.77
395.997	5
396.354	5.29
396.71	5.59
397.066	5.7
397.422	5.98
397.778	6.16
398.134	6.38
398.491	6.67
398.846	6.98
399.202	7.38
399.558	7.64
399.914	7.89
400.27	8.11
400.626	8.38
400.981	8.84
401.337	9.09
401.693	9.48
402.048	9.88
402.404	10.27
402.759	10.67
403.115	11.14
403.47	11.63
403.826	12.18
404.181	12.61
404.536	13
404.892	13.46
405.247	13.91
405.602	14.37
405.957	14.9
406.312	15.32
406.667	15.77
407.022	16.38
407.377	16.94
407.732	17.5
408.087	17.97
408.442	18.52
408.796	18.99
409.151	19.65
409.506	20.21
409.86	20.63
410.215	21.26
410.57	21.87
410.924	22.45
411.279	22.89
411.633	23.47
411.987	24.12
412.342	24.64
412.696	25.12
413.05	25.82
413.404	26.46
413.758	27.15
414.113	27.7
414.467	28.31
414.821	29.02
415.175	29.69
415.529	30.39
415.882	30.96
416.236	31.56
416.59	32.07
416.944	32.57
417.298	33.3
417.651	33.76
418.005	34.34
418.358	35.04
418.712	35.65
419.065	36.21
419.419	36.68
419.772	37.25
420.126	37.82
420.479	38.26
420.832	38.78
421.185	39.27
421.539	39.83
421.892	40.16
422.245	40.66
422.598	41
422.951	41.61
423.304	42.03
423.657	42.39
424.01	42.84
424.363	43.31
424.715	43.7
425.068	44.16
425.421	44.74
425.773	45.25
426.126	45.57
426.479	46.15
426.831	46.44
427.184	46.65
427.536	47.02
427.889	47.47
428.241	47.95
428.593	48.31
428.945	48.61
429.298	49.05
429.65	49.25
430.002	49.51
430.354	49.79
430.706	50.15
431.058	50.39
431.41	50.79
431.762	50.96
432.114	51.19
432.466	51.45
432.817	51.74
433.169	51.88
433.521	52.19
433.872	52.4
434.224	52.61
434.576	52.75
434.927	52.98
435.279	53.2
435.63	53.47
435.981	53.8
436.333	54.05
436.684	54.09
437.035	54.06
437.387	53.96
437.738	54.15
438.089	54.35
438.44	54.5
438.791	54.62
439.142	54.67
439.493	54.83
439.844	54.88
440.195	54.83
440.545	54.85
440.896	54.86
441.247	54.98
441.598	55
441.948	55.14
442.299	55.25
442.649	55.27
443	55.24
443.35	55.38
443.701	55.3
444.051	55.51
444.401	55.54
444.752	55.5
445.102	55.52
445.452	55.58
445.802	55.64
446.152	55.93
446.502	55.97
446.852	55.83
447.202	55.95
447.552	55.94
447.902	56.11
448.252	56.13
448.602	55.11
448.952	55.14
449.301	55.22
449.651	55.5
450.001	55.47
450.35	55.55
450.7	55.55
451.049	55.5
451.399	55.59
451.748	55.62
452.097	55.63
452.447	55.68
452.796	55.51
453.145	55.51
453.494	55.64
453.843	55.37
454.193	55.35
454.542	55.26
454.891	55.11
455.239	55.03
455.588	54.97
455.937	54.88
456.286	54.95
456.635	54.79
456.984	54.71
457.332	55.94
457.681	56.11
458.03	56.03
458.378	55.78
458.727	56
459.075	55.71
459.423	55.93
459.772	55.83
460.12	55.64
460.468	55.54
460.817	55.41
461.165	55.4
461.513	55.3
461.861	55.38
462.209	55.05
462.557	55.14
462.905	55.18
463.253	55.29
463.601	55.37
463.949	55.41
464.297	55.52
464.644	55.46
464.992	55.33
465.34	55.28
465.687	55.39
466.035	55.29
466.383	55.19
466.73	55.35
467.078	55.37
467.425	55.12
467.772	55.34
468.12	55.04
468.467	55.08
468.814	55.18
469.161	55.24
469.508	55.15
469.856	55.04
470.203	54.9
470.55	54.83
470.897	54.73
471.243	54.79
471.59	54.64
471.937	54.48
472.284	54.43
472.631	54.23
472.977	54.08
473.324	54.04
473.671	53.84
474.017	53.73
474.364	53.57
474.71	53.39
475.057	53.14
475.403	52.95
475.749	52.94
476.096	52.78
476.442	52.56
476.788	52.45
477.134	52.19
477.48	51.97
477.826	51.74
478.172	51.69
478.518	51.73
478.864	51.68
479.21	51.52
479.556	51.39
479.902	51.24
480.248	51.12
480.593	50.99
480.939	50.85
481.285	50.68
481.63	50.58
481.976	50.4
482.321	50.41
482.667	50.31
483.012	50.27
483.357	50.3
483.703	50.21
484.048	50.14
484.393	49.93
484.738	49.94
485.084	49.85
485.429	49.74
485.774	49.75
486.119	49.67
486.464	49.59
486.808	49.52
487.153	49.24
487.498	49.19
487.843	48.96
488.188	48.88
488.532	48.7
488.877	48.51
489.222	48.43
489.566	48.27
489.911	48.37
490.255	48.33
490.6	48.2
490.944	48.03
491.288	47.97
491.633	47.82
491.977	47.5
492.321	47.44
492.665	47.19
493.009	47.01
493.353	46.76
493.697	46.65
494.041	46.6
494.385	46.46
494.729	46.35
495.073	46.18
495.417	45.94
495.76	45.85
496.104	45.58
496.448	45.54
496.791	45.4
497.135	45.2
497.479	45.12
497.822	44.93
498.165	44.68
498.509	44.41
498.852	44.16
499.196	44.07
499.539	43.99
499.882	43.8
500.225	43.55
500.568	43.44
500.911	43.28
501.254	43.27
501.597	43.19
501.94	43.04
502.283	42.98
502.626	42.88
502.969	42.74
503.312	42.56
503.654	42.49
503.997	42.35
504.34	42.3
504.682	42.19
505.025	42.14
505.367	41.92
505.71	41.74
506.052	41.6
506.395	41.51
506.737	41.48
507.079	41.37
507.421	41.19
507.764	41.1
508.106	40.98
508.448	40.89
508.79	40.86
509.132	40.88
509.474	40.83
509.816	40.59
510.158	40.48
510.499	40.43
510.841	40.24
511.183	39.99
511.525	39.92
511.866	39.9
512.208	39.67
512.549	39.71
512.891	39.59
513.232	39.61
513.574	39.43
513.915	39.41
514.256	39.39
514.598	39.33
514.939	39.2
515.28	39.11
515.621	39.03
515.962	39.01
516.303	38.99
516.644	38.94
516.985	38.79
517.326	38.51
517.667	38.41
518.008	38.19
518.349	38.2
518.69	38.18
519.03	38.07
519.371	38.06
519.712	37.99
520.052	37.88
520.393	37.8
520.733	37.84
521.074	37.62
521.414	37.42
521.754	37.27
522.095	37.11
522.435	37.06
522.775	37.06
523.115	36.95
523.455	36.84
523.795	36.71
524.135	36.54
524.475	36.4
524.815	36.2
525.155	36.1
525.495	36.05
525.835	36.17
526.175	36.24
526.514	36.2
526.854	36.07
527.194	35.91
527.533	35.83
527.873	35.72
528.212	35.78
528.552	35.73
528.891	35.65
529.23	35.56
529.57	35.49
529.909	35.34
530.248	35.22
530.587	35.28
530.927	35.23
531.266	35.13
531.605	34.95
531.944	34.93
532.283	34.98
532.621	34.93
532.96	34.98
533.299	34.84
533.638	34.63
533.977	34.45
534.315	34.33
534.654	33.98
534.992	33.98
535.331	33.81
535.67	33.77
536.008	33.74
536.346	33.63
536.685	33.45
537.023	33.33
537.361	33.17
537.7	33.03
538.038	33.01
538.376	33.04
538.714	32.94
539.052	32.8
539.39	32.83
539.728	32.72
540.066	32.81
540.404	32.78
540.741	32.57
541.079	32.56
541.417	32.43
541.755	32.42
542.092	32.42
542.43	32.32
542.767	32.25
543.105	32.38
543.442	32.36
543.78	32.44
544.117	32.36
544.454	32.33
544.792	32.29
545.129	32.23
545.466	32.13
545.803	32.11
546.14	32.25
546.477	32.12
546.814	32
547.151	32.17
547.488	32.28
547.825	32.13
548.162	32.25
548.499	32.18
548.835	32.18
549.172	32.16
549.509	32.28
549.845	32.14
550.182	32.1
550.518	31.96
550.855	32.03
551.191	32.03
551.528	31.83
551.864	31.79
552.2	31.72
552.537	31.86
552.873	31.93
553.209	31.91
553.545	31.93
553.881	32.08
554.217	32.13
554.553	32.1
554.889	32.22
555.225	32.39
555.561	32.23
555.896	32.12
556.232	32.21
556.568	32.2
556.903	32.22
557.239	32.24
557.575	32.37
557.91	32.21
558.245	32.38
558.581	32.49
558.916	32.68
559.252	32.84
559.587	32.72
559.922	32.84
560.257	32.94
560.592	32.83
560.928	32.7
561.263	32.63
561.598	32.71
561.933	32.67
562.267	32.76
562.602	32.74
562.937	32.8
563.272	32.9
563.607	32.83
563.941	32.86
564.276	32.92
564.611	32.8
564.945	32.83
565.28	32.87
565.614	32.85
565.949	32.98
566.283	33.06
566.617	33.09
566.951	33.14
567.286	33.19
567.62	33.19
567.954	33.43
568.288	33.46
568.622	33.44
568.956	33.68
569.29	33.86
569.624	34.02
569.958	34.04
570.292	34.23
570.626	34.27
570.959	34.41
571.293	34.45
571.627	34.5
571.96	34.7
572.294	34.77
572.627	34.87
572.961	35.13
573.294	35.14
573.627	35.33
573.961	35.36
574.294	35.37
574.627	35.51
574.961	35.54
575.294	35.55
575.627	35.59
575.96	35.66
576.293	35.74
576.626	35.81
576.959	35.9
577.292	35.94
577.624	35.94
577.957	35.97
578.29	36.04
578.623	36.11
578.955	36.11
579.288	36.14
579.62	36.29
579.953	36.35
580.285	36.42
580.618	36.58
580.95	36.61
581.282	36.52
581.615	36.57
581.947	36.56
582.279	36.78
582.611	36.83
582.943	37.01
583.275	37.14
583.607	37.39
583.939	37.6
584.271	37.79
584.603	37.79
584.935	38
585.267	38.02
585.598	38.11
585.93	38.17
586.262	38.15
586.593	38.21
586.925	38.25
587.256	38.37
587.588	38.47
587.919	38.44
588.25	38.5
588.582	38.5
588.913	38.4
589.244	38.51
589.575	38.75
589.907	38.9
590.238	38.94
590.569	38.92
590.9	39.07
591.231	39.07
591.562	39.11
591.892	39.16
592.223	39.21
592.554	39.19
592.885	39.36
593.215	39.39
593.546	39.46
593.877	39.44
594.207	39.58
594.538	39.67
594.868	39.89
595.198	39.96
595.529	40.01
595.859	40
596.189	40.23
596.52	40.41
596.85	40.47
597.18	40.68
597.51	40.76
597.84	40.79
598.17	40.93
598.5	41.16
598.83	41.38
599.16	41.58
599.489	41.6
599.819	41.98
600.149	42.15
600.479	42.36
600.808	42.65
601.138	42.79
601.467	42.87
601.797	43.17
602.126	43.55
602.456	43.77
602.785	44.02
603.114	44.11
603.443	44.34
603.773	44.62
604.102	44.91
604.431	45.05
604.76	45.29
605.089	45.54
605.418	45.61
605.747	45.86
606.076	46.02
606.405	46.35
606.733	46.47
607.062	46.58
607.391	46.58
607.72	46.85
608.048	46.89
608.377	47.16
608.705	47.32
609.034	47.42
609.362	47.7
609.69	48.16
610.019	48.25
610.347	48.31
610.675	48.37
611.004	48.6
611.332	48.89
611.66	49.13
611.988	49.28
612.316	49.38
612.644	49.44
612.972	49.48
613.3	49.88
613.627	50.15
613.955	50.41
614.283	50.81
614.611	50.89
614.938	51.1
615.266	51.47
615.593	51.9
615.921	52.19
616.248	52.24
616.576	52.56
616.903	53.09
617.23	53.2
617.558	53.55
617.885	53.73
618.212	54.12
618.539	54.71
618.866	55.09
619.193	55.42
619.52	55.54
619.847	55.88
620.174	56.32
620.501	56.64
620.828	56.85
621.155	57.39
621.481	57.24
621.808	57.79
622.135	57.87
622.461	58.03
622.788	58.1
623.114	58.44
623.441	58.34
623.767	58.67
624.093	58.74
624.42	59.38
624.746	59.47
625.072	59.32
625.398	59.75
625.725	59.52
626.051	59.65
626.377	60.04
626.703	59.68
627.029	59.78
627.354	59.97
627.68	60.33
628.006	60.54
628.332	60.3
628.658	60.81
628.983	60.94
629.309	60.79
629.634	61.02
629.96	60.85
630.285	61.48
630.611	61.22
630.936	61.85
631.262	61.9
631.587	62.24
631.912	61.98
632.237	62.81
632.562	63.17
632.887	62.8
633.213	62.46
633.538	63.19
633.863	64.45
634.187	64.26
634.512	64.03
634.837	64.64
635.162	64.58
635.487	64.66
635.811	64.5
636.136	64.49
636.461	64.64
636.785	64.77
637.11	65.37
637.434	65.04
637.758	65.58
638.083	65.57
638.407	65.23
638.731	65.78
639.056	65.75
639.38	65.19
639.704	65.92
640.028	66.34
640.352	65.98
640.676	64.99
641	65.8
641.324	66.61
641.648	66.19
641.972	65.45
642.295	66.48
642.619	67.06
642.943	66.18
643.266	66.49
643.59	66.79
643.913	66.99
644.237	66.7
644.56	67.34
644.884	67.55
645.207	67.7
645.53	68.33
645.854	68.23
646.177	68.27
646.5	68.44
646.823	68.24
647.146	67.59
647.469	68.48
647.792	67.99
648.115	67.71
648.438	67.66
648.761	69.96
649.084	70.14
649.406	70.15
649.729	69.27
650.052	69
650.374	68.87
650.697	68.85
651.019	68.98
651.342	69.11
651.664	69.04
651.987	69.17
652.309	69.43
652.631	69.41
652.953	69.38
653.276	69.11
653.598	69.51
653.92	69.55
654.242	69.83
654.564	69.76
654.886	69.82
655.208	69.94
655.53	69.67
655.851	69.78
656.173	69.76
656.495	69.88
656.816	69.22
657.138	68.87
657.46	68.55
