Data from T2_Reflection__126__01-57-30-803.txt Node

Date: Fri Jun 04 01:57:30 CEST 2021
User: mabdelazizm
Spectrometer: FLMS18565
Trigger mode: 0
Integration Time (sec): 2.000000E0
Scans to average: 1
Electric dark correction enabled: true
Nonlinearity correction enabled: false
Boxcar width: 12
XAxis mode: Wavelengths
Number of Pixels in Spectrum: 2048
>>>>>Begin Spectral Data<<<<<
179.071	349.33
179.452	138.82
179.833	187.03
180.214	2700
180.595	138.71
180.977	161.08
181.358	-185.71
181.739	63.64
182.12	47.55
182.501	-10.25
182.882	24.48
183.262	68.05
183.643	54.1
184.024	57.99
184.405	56.03
184.786	56.24
185.166	52.3
185.547	63.06
185.927	68.82
186.308	63.75
186.689	68.06
187.069	61.76
187.449	57.48
187.83	52.02
188.21	45.72
188.59	48.95
188.971	49.12
189.351	50.15
189.731	46.52
190.111	45.94
190.491	41.78
190.871	36.25
191.251	37.47
191.631	34.38
192.011	34.78
192.391	33.49
192.771	35.01
193.151	33.77
193.531	32.11
193.91	30.39
194.29	28.29
194.67	28.09
195.049	23.84
195.429	20.81
195.808	27.26
196.188	23.1
196.567	20.53
196.946	24.27
197.326	23.81
197.705	23.09
198.084	23.65
198.464	21.86
198.843	21.39
199.222	23.23
199.601	20.44
199.98	24.76
200.359	24.65
200.738	26.9
201.117	27.4
201.496	24.99
201.875	25.21
202.254	22.04
202.632	20.8
203.011	23.1
203.39	23.66
203.768	22.97
204.147	21.91
204.525	20.15
204.904	17.97
205.282	15.37
205.661	17.87
206.039	19.02
206.418	18.49
206.796	20.67
207.174	21.5
207.552	21.08
207.931	20.57
208.309	20.56
208.687	20.95
209.065	22.26
209.443	19.9
209.821	19.16
210.199	18.32
210.577	20.31
210.954	23.32
211.332	21.67
211.71	22.76
212.088	24.32
212.465	24.17
212.843	24.52
213.221	24.89
213.598	26.51
213.976	26.04
214.353	28.17
214.731	26.03
215.108	25.96
215.485	25.03
215.863	24.73
216.24	21.87
216.617	22.85
216.994	22.62
217.371	22.22
217.749	21.34
218.126	19.31
218.503	18.23
218.88	18.7
219.256	18.71
219.633	15.88
220.01	14
220.387	13.31
220.764	14.06
221.14	12.84
221.517	12.59
221.894	10.3
222.27	9.1
222.647	8.92
223.023	8.55
223.4	8.73
223.776	7.36
224.153	7
224.529	6.45
224.905	5.91
225.282	5.7
225.658	6.43
226.034	5.94
226.41	5.53
226.786	5.72
227.162	5.42
227.538	5.45
227.914	5.29
228.29	4.63
228.666	4.24
229.042	4.46
229.418	4.49
229.793	4.25
230.169	3.81
230.545	3.7
230.92	3.46
231.296	3.55
231.672	3.77
232.047	3.68
232.422	3.43
232.798	3.55
233.173	3.65
233.549	3.8
233.924	3.78
234.299	4.02
234.674	4.14
235.05	3.95
235.425	3.75
235.8	3.57
236.175	3.35
236.55	3.25
236.925	3.32
237.3	3.1
237.675	3.29
238.049	3.33
238.424	3.4
238.799	3.32
239.174	3.38
239.548	3.48
239.923	3.44
240.297	3.43
240.672	3.43
241.046	3.2
241.421	3.22
241.795	3.16
242.17	3.09
242.544	2.86
242.918	2.89
243.293	2.85
243.667	2.9
244.041	2.82
244.415	2.79
244.789	2.8
245.163	2.9
245.537	2.95
245.911	3
246.285	2.89
246.659	2.97
247.033	2.87
247.406	2.94
247.78	2.87
248.154	2.88
248.528	2.83
248.901	2.76
249.275	2.77
249.648	2.78
250.022	2.72
250.395	2.77
250.769	2.76
251.142	2.82
251.515	2.79
251.888	2.91
252.262	2.84
252.635	2.83
253.008	2.74
253.381	2.61
253.754	2.58
254.127	2.61
254.5	2.56
254.873	2.47
255.246	2.45
255.619	2.51
255.992	2.52
256.364	2.55
256.737	2.46
257.11	2.46
257.483	2.36
257.855	2.42
258.228	2.47
258.6	2.48
258.973	2.43
259.345	2.46
259.718	2.43
260.09	2.34
260.462	2.2
260.834	2.2
261.207	2.15
261.579	2.14
261.951	2.17
262.323	2.13
262.695	2.15
263.067	2.17
263.439	2.17
263.811	2.19
264.183	2.12
264.555	2.15
264.927	2.12
265.298	2.1
265.67	2.07
266.042	2.08
266.413	2.02
266.785	2.07
267.156	2.01
267.528	1.87
267.899	1.83
268.271	1.85
268.642	1.83
269.013	1.91
269.385	1.94
269.756	2
270.127	2.01
270.498	2.02
270.87	1.99
271.241	1.9
271.612	1.83
271.983	1.81
272.354	1.75
272.724	1.7
273.095	1.73
273.466	1.76
273.837	1.78
274.208	1.79
274.578	1.72
274.949	1.67
275.32	1.63
275.69	1.59
276.061	1.56
276.431	1.6
276.802	1.64
277.172	1.63
277.542	1.56
277.913	1.61
278.283	1.57
278.653	1.61
279.023	1.58
279.394	1.55
279.764	1.54
280.134	1.57
280.504	1.6
280.874	1.64
281.244	1.69
281.614	1.74
281.983	1.72
282.353	1.63
282.723	1.61
283.093	1.54
283.462	1.52
283.832	1.53
284.202	1.59
284.571	1.57
284.941	1.7
285.31	1.77
285.68	1.76
286.049	1.76
286.418	1.66
286.788	1.72
287.157	1.7
287.526	1.72
287.895	1.67
288.264	1.64
288.633	1.58
289.002	1.54
289.371	1.49
289.74	1.5
290.109	1.55
290.478	1.55
290.847	1.51
291.216	1.49
291.585	1.48
291.953	1.52
292.322	1.54
292.691	1.48
293.059	1.52
293.428	1.44
293.796	1.45
294.165	1.4
294.533	1.35
294.901	1.32
295.27	1.31
295.638	1.46
296.006	1.44
296.374	1.41
296.743	1.36
297.111	1.44
297.479	1.47
297.847	1.48
298.215	1.53
298.583	1.5
298.95	1.49
299.318	1.46
299.686	1.39
300.054	1.4
300.422	1.41
300.789	1.42
301.157	1.35
301.525	1.31
301.892	1.39
302.26	1.41
302.627	1.42
302.994	1.43
303.362	1.38
303.729	1.4
304.097	1.38
304.464	1.37
304.831	1.31
305.198	1.31
305.565	1.19
305.932	1.15
306.299	1.07
306.666	1.09
307.033	1.13
307.4	1.12
307.767	1.13
308.134	1.11
308.501	1.11
308.867	1.09
309.234	1.1
309.601	1.12
309.967	1.11
310.334	1.17
310.701	1.18
311.067	1.12
311.433	1.13
311.8	1.17
312.166	1.16
312.533	1.19
312.899	1.16
313.265	1.14
313.631	1.11
313.997	1.04
314.363	0.98
314.729	1.02
315.096	1.08
315.461	1.05
315.827	1.03
316.193	0.97
316.559	0.92
316.925	0.99
317.291	0.94
317.656	0.93
318.022	1.02
318.388	0.95
318.753	0.97
319.119	0.99
319.484	1.01
319.85	0.99
320.215	1.06
320.581	1.03
320.946	1.03
321.311	1.05
321.676	1
322.042	0.97
322.407	0.9
322.772	0.84
323.137	0.9
323.502	0.93
323.867	0.94
324.232	0.91
324.597	0.98
324.962	1.03
325.327	1.08
325.691	1.12
326.056	1
326.421	1.05
326.785	1.02
327.15	0.98
327.514	1.07
327.879	1.06
328.243	1.07
328.608	1.07
328.972	1.09
329.337	0.97
329.701	0.89
330.065	0.92
330.429	0.89
330.794	0.9
331.158	0.96
331.522	1.16
331.886	1.27
332.25	1.28
332.614	1.26
332.978	1.29
333.342	1.34
333.705	1.32
334.069	1.3
334.433	1.23
334.797	1.13
335.16	1.2
335.524	1.21
335.887	1.18
336.251	1.16
336.614	1.13
336.978	1.1
337.341	1.06
337.705	1.02
338.068	1.04
338.431	1.03
338.794	1.01
339.158	1
339.521	1.01
339.884	1.03
340.247	0.96
340.61	0.87
340.973	0.81
341.336	0.79
341.699	0.76
342.062	0.76
342.424	0.62
342.787	0.57
343.15	0.52
343.512	0.6
343.875	0.68
344.238	0.65
344.6	0.57
344.963	0.61
345.325	0.54
345.688	0.55
346.05	0.55
346.412	0.59
346.775	0.61
347.137	0.54
347.499	0.62
347.861	0.67
348.223	0.63
348.585	0.64
348.947	0.52
349.309	0.54
349.671	0.39
350.033	0.44
350.395	0.47
350.757	0.59
351.118	0.57
351.48	0.64
351.842	0.62
352.203	0.66
352.565	0.64
352.927	0.61
353.288	0.62
353.65	0.61
354.011	0.6
354.372	0.65
354.734	0.68
355.095	0.7
355.456	0.73
355.817	0.7
356.179	0.78
356.54	0.78
356.901	0.85
357.262	0.84
357.623	0.81
357.984	0.95
358.345	0.98
358.705	1.14
359.066	1.06
359.427	1.06
359.788	1.02
360.148	1.04
360.509	1.02
360.87	1
361.23	1.03
361.591	1
361.951	1.08
362.312	1.18
362.672	1.23
363.032	1.21
363.393	1.19
363.753	1.09
364.113	1.09
364.473	1.17
364.833	1.09
365.193	1.02
365.553	0.99
365.913	0.9
366.273	0.94
366.633	0.96
366.993	0.89
367.353	0.92
367.713	0.87
368.072	0.93
368.432	0.83
368.792	0.81
369.151	0.77
369.511	0.74
369.87	0.71
370.23	0.71
370.589	0.79
370.949	0.69
371.308	0.65
371.667	0.66
372.027	0.73
372.386	0.81
372.745	0.9
373.104	0.93
373.463	0.84
373.822	0.86
374.181	0.93
374.54	0.95
374.899	1.02
375.258	0.97
375.617	1.09
375.975	1.24
376.334	1.21
376.693	1.3
377.052	1.27
377.41	1.43
377.769	1.45
378.127	1.49
378.486	1.54
378.844	1.67
379.202	1.66
379.561	1.52
379.919	1.53
380.277	1.55
380.636	1.59
380.994	1.64
381.352	1.73
381.71	1.8
382.068	1.78
382.426	1.82
382.784	2.04
383.142	2.1
383.5	2.2
383.857	2.28
384.215	2.38
384.573	2.41
384.931	2.44
385.288	2.55
385.646	2.65
386.003	2.76
386.361	2.77
386.718	2.9
387.076	3
387.433	3.14
387.791	3.19
388.148	3.35
388.505	3.6
388.862	3.7
389.22	3.82
389.577	3.99
389.934	4.09
390.291	4.22
390.648	4.37
391.005	4.6
391.362	4.8
391.718	4.92
392.075	5.12
392.432	5.25
392.789	5.46
393.145	5.75
393.502	6
393.859	6.14
394.215	6.35
394.572	6.56
394.928	6.86
395.285	7.1
395.641	7.41
395.997	7.78
396.354	8.21
396.71	8.57
397.066	8.88
397.422	9.27
397.778	9.76
398.134	10.15
398.491	10.62
398.846	11.02
399.202	11.5
399.558	11.95
399.914	12.32
400.27	12.73
400.626	13.15
400.981	13.65
401.337	14.22
401.693	14.73
402.048	15.25
402.404	15.77
402.759	16.41
403.115	17
403.47	17.6
403.826	18.2
404.181	18.77
404.536	19.34
404.892	19.84
405.247	20.38
405.602	21
405.957	21.52
406.312	22.03
406.667	22.54
407.022	23.1
407.377	23.67
407.732	24.27
408.087	24.92
408.442	25.47
408.796	26.03
409.151	26.74
409.506	27.37
409.86	27.81
410.215	28.31
410.57	28.93
410.924	29.39
411.279	29.85
411.633	30.36
411.987	30.88
412.342	31.37
412.696	31.91
413.05	32.43
413.404	32.96
413.758	33.62
414.113	34.02
414.467	34.44
414.821	35
415.175	35.66
415.529	36.13
415.882	36.58
416.236	36.91
416.59	37.22
416.944	37.48
417.298	37.95
417.651	38.29
418.005	38.56
418.358	39.02
418.712	39.55
419.065	40.04
419.419	40.2
419.772	40.53
420.126	40.91
420.479	41.18
420.832	41.45
421.185	41.7
421.539	41.97
421.892	42.21
422.245	42.47
422.598	42.68
422.951	43.06
423.304	43.23
423.657	43.42
424.01	43.57
424.363	43.89
424.715	44.19
425.068	44.46
425.421	44.86
425.773	45.19
426.126	45.34
426.479	45.75
426.831	46.02
427.184	46.04
427.536	46.2
427.889	46.36
428.241	46.74
428.593	47.01
428.945	47.25
429.298	47.53
429.65	47.65
430.002	47.81
430.354	47.83
430.706	48.11
431.058	48.13
431.41	48.34
431.762	48.36
432.114	48.48
432.466	48.63
432.817	48.79
433.169	48.78
433.521	48.94
433.872	48.99
434.224	49.12
434.576	49.12
434.927	49.18
435.279	49.19
435.63	49.21
435.981	49.42
436.333	49.46
436.684	49.42
437.035	49.29
437.387	49.14
437.738	48.97
438.089	48.91
438.44	48.91
438.791	48.87
439.142	48.98
439.493	48.89
439.844	48.91
440.195	48.79
440.545	48.71
440.896	48.7
441.247	48.65
441.598	48.45
441.948	48.43
442.299	48.45
442.649	48.56
443	48.44
443.35	48.43
443.701	48.29
444.051	48.16
444.401	48.07
444.752	47.88
445.102	47.83
445.452	47.73
445.802	47.78
446.152	48.01
446.502	48.16
446.852	48.06
447.202	48
447.552	48.08
447.902	48.04
448.252	48.13
448.602	48.59
448.952	48.69
449.301	48.76
449.651	48.98
450.001	49.11
450.35	49.33
450.7	49.42
451.049	49.37
451.399	49.34
451.748	49.46
452.097	49.45
452.447	49.68
452.796	49.91
453.145	50.03
453.494	50.34
453.843	50.42
454.193	50.56
454.542	50.72
454.891	50.67
455.239	50.71
455.588	50.93
455.937	51.23
456.286	51.41
456.635	51.52
456.984	51.59
457.332	51.28
457.681	51.35
458.03	51.45
458.378	51.55
458.727	51.88
459.075	51.97
459.423	52.29
459.772	52.31
460.12	52.38
460.468	52.42
460.817	52.49
461.165	52.42
461.513	52.52
461.861	52.7
462.209	52.45
462.557	52.54
462.905	52.75
463.253	52.63
463.601	52.69
463.949	52.87
464.297	52.77
464.644	52.69
464.992	52.71
465.34	52.72
465.687	52.84
466.035	52.75
466.383	52.55
466.73	52.56
467.078	52.47
467.425	52.18
467.772	52.05
468.12	51.7
468.467	51.55
468.814	51.62
469.161	51.49
469.508	51.35
469.856	51.26
470.203	50.96
470.55	50.79
470.897	50.65
471.243	50.63
471.59	50.31
471.937	50.23
472.284	50.07
472.631	49.76
472.977	49.61
473.324	49.47
473.671	49.18
474.017	48.78
474.364	48.5
474.71	48.35
475.057	48.21
475.403	47.91
475.749	47.64
476.096	47.5
476.442	47.44
476.788	47.29
477.134	47.2
477.48	46.98
477.826	46.87
478.172	46.89
478.518	46.85
478.864	47.04
479.21	47.06
479.556	47.1
479.902	47
480.248	46.99
480.593	47
480.939	47.08
481.285	47.22
481.63	47.25
481.976	47.31
482.321	47.4
482.667	47.73
483.012	47.92
483.357	48.05
483.703	48.16
484.048	48.41
484.393	48.53
484.738	48.65
485.084	48.78
485.429	49.07
485.774	49.31
486.119	49.48
486.464	49.59
486.808	49.59
487.153	49.61
487.498	49.63
487.843	49.63
488.188	49.78
488.532	49.89
488.877	50.08
489.222	50.23
489.566	50.27
489.911	50.36
490.255	50.59
490.6	50.78
490.944	50.85
491.288	50.78
491.633	50.78
491.977	50.72
492.321	50.78
492.665	50.84
493.009	50.9
493.353	50.91
493.697	50.84
494.041	50.69
494.385	50.68
494.729	50.62
495.073	50.73
495.417	50.81
495.76	50.83
496.104	50.69
496.448	50.78
496.791	50.7
497.135	50.6
497.479	50.62
497.822	50.5
498.165	50.48
498.509	50.38
498.852	50.18
499.196	50.06
499.539	50
499.882	49.98
500.225	49.86
500.568	49.71
500.911	49.58
501.254	49.5
501.597	49.44
501.94	49.34
502.283	49.3
502.626	49.4
502.969	49.27
503.312	49.16
503.654	49.08
503.997	48.95
504.34	48.94
504.682	48.91
505.025	48.82
505.367	48.77
505.71	48.6
506.052	48.45
506.395	48.42
506.737	48.35
507.079	48.21
507.421	48.1
507.764	47.93
508.106	47.72
508.448	47.67
508.79	47.5
509.132	47.58
509.474	47.52
509.816	47.29
510.158	47.19
510.499	47.07
510.841	46.86
511.183	46.62
511.525	46.54
511.866	46.68
512.208	46.43
512.549	46.31
512.891	46.26
513.232	46.27
513.574	46.06
513.915	45.81
514.256	45.84
514.598	45.82
514.939	45.7
515.28	45.39
515.621	45.4
515.962	45.32
516.303	45.31
516.644	45.36
516.985	45.28
517.326	45.2
517.667	44.97
518.008	44.83
518.349	44.84
518.69	44.7
519.03	44.63
519.371	44.69
519.712	44.61
520.052	44.36
520.393	44.09
520.733	44.06
521.074	43.96
521.414	43.79
521.754	43.61
522.095	43.5
522.435	43.7
522.775	43.68
523.115	43.69
523.455	43.5
523.795	43.59
524.135	43.39
524.475	43.28
524.815	43.17
525.155	43.12
525.495	42.87
525.835	42.86
526.175	42.89
526.514	42.99
526.854	42.84
527.194	43.02
527.533	42.96
527.873	42.86
528.212	42.84
528.552	42.85
528.891	42.79
529.23	42.76
529.57	42.73
529.909	42.68
530.248	42.64
530.587	42.58
530.927	42.39
531.266	42.3
531.605	41.9
531.944	41.9
532.283	41.82
532.621	41.82
532.96	41.91
533.299	41.76
533.638	41.62
533.977	41.68
534.315	41.63
534.654	41.49
534.992	41.22
535.331	41.14
535.67	40.89
536.008	40.82
536.346	40.63
536.685	40.46
537.023	40.37
537.361	40.24
537.7	40.06
538.038	39.97
538.376	39.84
538.714	39.62
539.052	39.76
539.39	39.74
539.728	39.62
540.066	39.67
540.404	39.59
540.741	39.39
541.079	39.27
541.417	39.28
541.755	39.07
542.092	38.94
542.43	38.89
542.767	38.75
543.105	38.68
543.442	38.78
543.78	38.82
544.117	38.82
544.454	38.68
544.792	38.76
545.129	38.77
545.466	38.73
545.803	38.75
546.14	38.89
546.477	38.89
546.814	38.77
547.151	38.88
547.488	38.69
547.825	38.5
548.162	38.52
548.499	38.52
548.835	38.53
549.172	38.48
549.509	38.35
549.845	38.24
550.182	38.35
550.518	38.3
550.855	38.3
551.191	38.45
551.528	38.41
551.864	38.41
552.2	38.33
552.537	38.32
552.873	38.35
553.209	38.28
553.545	38.3
553.881	38.5
554.217	38.48
554.553	38.38
554.889	38.4
555.225	38.58
555.561	38.53
555.896	38.51
556.232	38.65
556.568	38.79
556.903	38.84
557.239	38.89
557.575	38.99
557.91	39.21
558.245	39.25
558.581	39.4
558.916	39.54
559.252	39.42
559.587	39.21
559.922	39.39
560.257	39.43
560.592	39.48
560.928	39.42
561.263	39.47
561.598	39.58
561.933	39.56
562.267	39.51
562.602	39.58
562.937	39.61
563.272	39.81
563.607	39.66
563.941	39.58
564.276	39.55
564.611	39.61
564.945	39.57
565.28	39.5
565.614	39.46
565.949	39.47
566.283	39.41
566.617	39.42
566.951	39.49
567.286	39.52
567.62	39.57
567.954	39.77
568.288	39.96
568.622	39.87
568.956	39.93
569.29	40.02
569.624	40.05
569.958	40.09
570.292	40.19
570.626	40.25
570.959	40.18
571.293	40.24
571.627	40.1
571.96	40.37
572.294	40.37
572.627	40.44
572.961	40.47
573.294	40.44
573.627	40.53
573.961	40.61
574.294	40.71
574.627	40.78
574.961	40.77
575.294	40.78
575.627	40.78
575.96	40.8
576.293	40.68
576.626	40.6
576.959	40.77
577.292	40.84
577.624	40.89
577.957	40.89
578.29	40.88
578.623	40.92
578.955	40.94
579.288	41
579.62	41.12
579.953	41.34
580.285	41.31
580.618	41.54
580.95	41.61
581.282	41.71
581.615	41.76
581.947	41.87
582.279	41.9
582.611	41.99
582.943	41.99
583.275	42.11
583.607	42.24
583.939	42.46
584.271	42.67
584.603	42.91
584.935	42.92
585.267	43
585.598	43
585.93	43.07
586.262	43.27
586.593	43.46
586.925	43.67
587.256	43.67
587.588	43.76
587.919	43.82
588.25	43.77
588.582	43.84
588.913	43.9
589.244	44.08
589.575	44.32
589.907	44.49
590.238	44.52
590.569	44.74
590.9	44.88
591.231	45.13
591.562	45.24
591.892	45.34
592.223	45.48
592.554	45.6
592.885	45.73
593.215	45.98
593.546	45.86
593.877	45.95
594.207	46.09
594.538	46.18
594.868	46.34
595.198	46.31
595.529	46.47
595.859	46.69
596.189	46.8
596.52	47.02
596.85	47.2
597.18	47.33
597.51	47.45
597.84	47.43
598.17	47.56
598.5	47.66
598.83	47.86
599.16	48.18
599.489	48.28
599.819	48.58
600.149	48.74
600.479	48.9
600.808	48.97
601.138	49.17
601.467	49.39
601.797	49.67
602.126	50.16
602.456	50.53
602.785	50.67
603.114	50.86
603.443	51.13
603.773	51.53
604.102	51.73
604.431	52.06
604.76	52.29
605.089	52.53
605.418	52.71
605.747	52.96
606.076	53.08
606.405	53.32
606.733	53.57
607.062	53.91
607.391	53.82
607.72	54.09
608.048	54.1
608.377	54.32
608.705	54.48
609.034	54.83
609.362	55.09
609.69	55.11
610.019	55.43
610.347	55.27
610.675	55.29
611.004	55.41
611.332	55.63
611.66	56.05
611.988	56.27
612.316	56.36
612.644	56.37
612.972	56.39
613.3	56.52
613.627	56.93
613.955	56.84
614.283	57.25
614.611	57.53
614.938	57.78
615.266	57.68
615.593	57.92
615.921	58.12
616.248	58.37
616.576	58.79
616.903	59.1
617.23	59.38
617.558	59.81
617.885	60.35
618.212	60.83
618.539	61.23
618.866	61.37
619.193	62.06
619.52	62.04
619.847	61.75
620.174	61.77
620.501	62.31
620.828	62.44
621.155	62.97
621.481	63.03
621.808	63.41
622.135	64.24
622.461	64.34
622.788	64.39
623.114	64.59
623.441	64.72
623.767	65.11
624.093	65.47
624.42	66.08
624.746	66.34
625.072	66.57
625.398	66.75
625.725	66.71
626.051	66.94
626.377	67.23
626.703	67.36
627.029	67.78
627.354	67.65
627.68	67.78
628.006	68.37
628.332	68.63
628.658	68.67
628.983	69.19
629.309	68.94
629.634	69.41
629.96	69.17
630.285	69.3
630.611	69.1
630.936	69.41
631.262	69.16
631.587	69.31
631.912	69.05
632.237	69.37
632.562	69.55
632.887	69.25
633.213	69.23
633.538	69.63
633.863	70.21
634.187	69.78
634.512	69.49
634.837	69.75
635.162	69.7
635.487	69.7
635.811	69.73
636.136	69.98
636.461	70.04
636.785	70.37
637.11	70.73
637.434	70.35
637.758	70.58
638.083	70.51
638.407	70.2
638.731	70.47
639.056	70.38
639.38	70.48
639.704	71.05
640.028	71.48
640.352	71.21
640.676	70.63
641	71.14
641.324	71.31
641.648	71.08
641.972	70.56
642.295	71.83
642.619	71.96
642.943	71
643.266	70.51
643.59	70.7
643.913	70.72
644.237	70.18
644.56	70.06
644.884	69.72
645.207	69.41
645.53	69.98
645.854	69.8
646.177	69.75
646.5	69.78
646.823	69.76
647.146	70.04
647.469	70.54
647.792	70.54
648.115	70.42
648.438	70.48
648.761	72.18
649.084	72.68
649.406	72.55
649.729	71.74
650.052	71.55
650.374	71.21
650.697	71.4
651.019	71.59
651.342	71.79
651.664	71.74
651.987	71.75
652.309	71.97
652.631	72.2
652.953	72.39
653.276	72.36
653.598	72.64
653.92	72.57
654.242	72.61
654.564	72.48
654.886	72.51
655.208	72.33
655.53	72.18
655.851	72.15
656.173	72.26
656.495	72.51
656.816	72.04
657.138	71.44
657.46	71.15
657.781	72.69
658.103	73.96
