Data from T2_Reflection__152__02-15-08-770.txt Node

Date: Fri Jun 04 02:15:08 CEST 2021
User: mabdelazizm
Spectrometer: FLMS18565
Trigger mode: 0
Integration Time (sec): 2.000000E0
Scans to average: 1
Electric dark correction enabled: true
Nonlinearity correction enabled: false
Boxcar width: 12
XAxis mode: Wavelengths
Number of Pixels in Spectrum: 2048
>>>>>Begin Spectral Data<<<<<
179.071	326.91
179.452	51.9
179.833	141.12
180.214	1800
180.595	112.6
180.977	97.04
181.358	-312.24
181.739	57.58
182.12	27.65
182.501	29.38
182.882	40.92
183.262	51.48
183.643	37.11
184.024	15.47
184.405	25.48
184.786	28.74
185.166	35.6
185.547	38.59
185.927	51.8
186.308	51.21
186.689	53.11
187.069	48.65
187.449	55.08
187.83	49.88
188.21	51.57
188.59	58.28
188.971	52.95
189.351	54.33
189.731	50.88
190.111	53.22
190.491	50.55
190.871	44.34
191.251	46.46
191.631	46.66
192.011	42.33
192.391	40.91
192.771	42.86
193.151	43.65
193.531	46.74
193.91	43.8
194.29	43.32
194.67	44.52
195.049	44.74
195.429	42.52
195.808	40.21
196.188	35.45
196.567	31.96
196.946	33.9
197.326	34.25
197.705	32.96
198.084	28.9
198.464	27.21
198.843	27.61
199.222	31.75
199.601	27.82
199.98	30.03
200.359	31.14
200.738	33.16
201.117	31.33
201.496	32.06
201.875	32.34
202.254	30.69
202.632	31.31
203.011	30.31
203.39	30.7
203.768	29.84
204.147	27.01
204.525	23.22
204.904	21.28
205.282	22.21
205.661	24.43
206.039	23.57
206.418	22.99
206.796	24.86
207.174	27.69
207.552	28.6
207.931	28.66
208.309	28.06
208.687	27.38
209.065	28.69
209.443	28.66
209.821	29.61
210.199	26.23
210.577	27.96
210.954	26.64
211.332	24.78
211.71	23.47
212.088	21.11
212.465	23.14
212.843	22.28
213.221	21.84
213.598	25.17
213.976	27.15
214.353	27.94
214.731	25.48
215.108	25.05
215.485	25.94
215.863	23.41
216.24	20.46
216.617	17
216.994	16.84
217.371	17.36
217.749	16.68
218.126	13.51
218.503	12.69
218.88	12.16
219.256	11.32
219.633	10.85
220.01	10.28
220.387	11.66
220.764	11.61
221.14	12.23
221.517	11.97
221.894	8.95
222.27	10.8
222.647	10.49
223.023	9.25
223.4	9.06
223.776	7.93
224.153	9.04
224.529	7.49
224.905	7.69
225.282	7.86
225.658	8.41
226.034	8.41
226.41	7.83
226.786	7.21
227.162	6.75
227.538	6.82
227.914	6.47
228.29	5.39
228.666	4.92
229.042	4.56
229.418	4.11
229.793	3.83
230.169	3.87
230.545	3.41
230.92	3.5
231.296	3.9
231.672	3.17
232.047	3.04
232.422	2.71
232.798	2.5
233.173	2.59
233.549	2.47
233.924	2.7
234.299	2.53
234.674	2.43
235.05	2.39
235.425	2.15
235.8	2.03
236.175	1.89
236.55	1.87
236.925	1.9
237.3	1.66
237.675	1.77
238.049	1.74
238.424	1.82
238.799	1.82
239.174	1.86
239.548	1.84
239.923	1.72
240.297	1.69
240.672	1.64
241.046	1.57
241.421	1.54
241.795	1.48
242.17	1.48
242.544	1.31
242.918	1.23
243.293	1.15
243.667	1.3
244.041	1.26
244.415	1.17
244.789	1.25
245.163	1.24
245.537	1.3
245.911	1.31
246.285	1.34
246.659	1.38
247.033	1.32
247.406	1.37
247.78	1.36
248.154	1.39
248.528	1.31
248.901	1.35
249.275	1.42
249.648	1.46
250.022	1.43
250.395	1.42
250.769	1.45
251.142	1.5
251.515	1.45
251.888	1.54
252.262	1.61
252.635	1.68
253.008	1.61
253.381	1.54
253.754	1.45
254.127	1.43
254.5	1.43
254.873	1.37
255.246	1.35
255.619	1.34
255.992	1.36
256.364	1.39
256.737	1.35
257.11	1.35
257.483	1.26
257.855	1.24
258.228	1.19
258.6	1.2
258.973	1.12
259.345	1.07
259.718	1.03
260.09	0.99
260.462	0.92
260.834	0.98
261.207	0.95
261.579	0.94
261.951	0.89
262.323	0.85
262.695	0.89
263.067	0.98
263.439	0.99
263.811	1.03
264.183	1.03
264.555	1.05
264.927	1.04
265.298	1.09
265.67	1.02
266.042	1.01
266.413	1.02
266.785	1.03
267.156	1.06
267.528	0.95
267.899	0.91
268.271	0.93
268.642	0.94
269.013	1.03
269.385	1.04
269.756	1.03
270.127	0.98
270.498	0.98
270.87	0.91
271.241	0.92
271.612	0.87
271.983	0.89
272.354	0.85
272.724	0.82
273.095	0.84
273.466	0.82
273.837	0.81
274.208	0.82
274.578	0.71
274.949	0.69
275.32	0.65
275.69	0.62
276.061	0.66
276.431	0.67
276.802	0.74
277.172	0.72
277.542	0.63
277.913	0.63
278.283	0.62
278.653	0.62
279.023	0.66
279.394	0.67
279.764	0.66
280.134	0.69
280.504	0.7
280.874	0.66
281.244	0.65
281.614	0.66
281.983	0.62
282.353	0.56
282.723	0.56
283.093	0.55
283.462	0.55
283.832	0.59
284.202	0.58
284.571	0.56
284.941	0.66
285.31	0.72
285.68	0.75
286.049	0.8
286.418	0.78
286.788	0.89
287.157	0.94
287.526	0.88
287.895	0.86
288.264	0.85
288.633	0.77
289.002	0.78
289.371	0.75
289.74	0.69
290.109	0.77
290.478	0.78
290.847	0.76
291.216	0.76
291.585	0.7
291.953	0.75
292.322	0.74
292.691	0.67
293.059	0.67
293.428	0.67
293.796	0.67
294.165	0.6
294.533	0.52
294.901	0.49
295.27	0.42
295.638	0.49
296.006	0.44
296.374	0.36
296.743	0.39
297.111	0.43
297.479	0.43
297.847	0.45
298.215	0.43
298.583	0.39
298.95	0.4
299.318	0.34
299.686	0.29
300.054	0.27
300.422	0.25
300.789	0.36
301.157	0.26
301.525	0.26
301.892	0.28
302.26	0.3
302.627	0.34
302.994	0.38
303.362	0.38
303.729	0.35
304.097	0.33
304.464	0.37
304.831	0.33
305.198	0.32
305.565	0.33
305.932	0.29
306.299	0.25
306.666	0.27
307.033	0.28
307.4	0.33
307.767	0.29
308.134	0.3
308.501	0.25
308.867	0.19
309.234	0.18
309.601	0.22
309.967	0.16
310.334	0.18
310.701	0.23
311.067	0.24
311.433	0.26
311.8	0.29
312.166	0.25
312.533	0.24
312.899	0.28
313.265	0.25
313.631	0.17
313.997	0.12
314.363	0.11
314.729	0.1
315.096	0.15
315.461	0.06
315.827	0
316.193	-0.1
316.559	-0.17
316.925	-0.03
317.291	-0.01
317.656	0.09
318.022	0.19
318.388	0.13
318.753	0.13
319.119	0.14
319.484	0.19
319.85	0.1
320.215	0.15
320.581	0.1
320.946	0.09
321.311	0.13
321.676	0.08
322.042	-0
322.407	-0.05
322.772	-0.02
323.137	0.03
323.502	0.05
323.867	0.05
324.232	-0.01
324.597	0.06
324.962	0.14
325.327	0.28
325.691	0.4
326.056	0.35
326.421	0.28
326.785	0.26
327.15	0.23
327.514	0.29
327.879	0.28
328.243	0.27
328.608	0.28
328.972	0.35
329.337	0.26
329.701	0.27
330.065	0.3
330.429	0.26
330.794	0.31
331.158	0.43
331.522	0.61
331.886	0.59
332.25	0.58
332.614	0.56
332.978	0.53
333.342	0.57
333.705	0.63
334.069	0.62
334.433	0.6
334.797	0.47
335.16	0.42
335.524	0.43
335.887	0.31
336.251	0.23
336.614	0.22
336.978	0.18
337.341	0.16
337.705	0.13
338.068	0.15
338.431	0.14
338.794	0.06
339.158	-0.01
339.521	0
339.884	0
340.247	-0.08
340.61	-0.19
340.973	-0.2
341.336	-0.24
341.699	-0.23
342.062	-0.18
342.424	-0.25
342.787	-0.36
343.15	-0.46
343.512	-0.46
343.875	-0.42
344.238	-0.41
344.6	-0.43
344.963	-0.27
345.325	-0.24
345.688	-0.21
346.05	-0.2
346.412	-0.19
346.775	-0.16
347.137	-0.21
347.499	-0.13
347.861	-0.05
348.223	-0.01
348.585	0.06
348.947	-0
349.309	-0.01
349.671	-0.04
350.033	0.06
350.395	0.1
350.757	0.17
351.118	0.12
351.48	0.14
351.842	0.15
352.203	0.22
352.565	0.13
352.927	0.15
353.288	0.17
353.65	0.15
354.011	0.08
354.372	0.1
354.734	0.08
355.095	0.16
355.456	0.25
355.817	0.17
356.179	0.23
356.54	0.17
356.901	0.15
357.262	0.1
357.623	0
357.984	0.04
358.345	0.14
358.705	0.21
359.066	0.05
359.427	0.09
359.788	0.03
360.148	0.06
360.509	0.1
360.87	0.14
361.23	0.24
361.591	0.26
361.951	0.33
362.312	0.34
362.672	0.41
363.032	0.48
363.393	0.4
363.753	0.44
364.113	0.39
364.473	0.32
364.833	0.33
365.193	0.28
365.553	0.31
365.913	0.3
366.273	0.38
366.633	0.43
366.993	0.44
367.353	0.31
367.713	0.28
368.072	0.36
368.432	0.29
368.792	0.33
369.151	0.34
369.511	0.34
369.87	0.35
370.23	0.25
370.589	0.32
370.949	0.16
371.308	0.13
371.667	0.15
372.027	0.09
372.386	0.19
372.745	0.26
373.104	0.26
373.463	0.27
373.822	0.3
374.181	0.24
374.54	0.18
374.899	0.22
375.258	0.14
375.617	0.19
375.975	0.29
376.334	0.36
376.693	0.41
377.052	0.45
377.41	0.56
377.769	0.54
378.127	0.58
378.486	0.56
378.844	0.68
379.202	0.75
379.561	0.65
379.919	0.66
380.277	0.67
380.636	0.64
380.994	0.71
381.352	0.79
381.71	0.75
382.068	0.75
382.426	0.75
382.784	0.9
383.142	0.99
383.5	1.11
383.857	1.17
384.215	1.24
384.573	1.36
384.931	1.3
385.288	1.33
385.646	1.34
386.003	1.39
386.361	1.35
386.718	1.41
387.076	1.46
387.433	1.55
387.791	1.52
388.148	1.62
388.505	1.81
388.862	1.96
389.22	2.09
389.577	2.23
389.934	2.23
390.291	2.37
390.648	2.47
391.005	2.77
391.362	2.96
391.718	3.01
392.075	3.13
392.432	3.36
392.789	3.57
393.145	3.8
393.502	3.95
393.859	4.21
394.215	4.44
394.572	4.8
394.928	5.04
395.285	5.27
395.641	5.67
395.997	6.07
396.354	6.38
396.71	6.77
397.066	7.04
397.422	7.4
397.778	7.85
398.134	8.29
398.491	8.67
398.846	9.17
399.202	9.71
399.558	10.22
399.914	10.6
400.27	11
400.626	11.57
400.981	12.19
401.337	12.75
401.693	13.21
402.048	13.73
402.404	14.27
402.759	14.84
403.115	15.51
403.47	16.05
403.826	16.72
404.181	17.35
404.536	17.95
404.892	18.49
405.247	19.16
405.602	19.81
405.957	20.46
406.312	21.09
406.667	21.68
407.022	22.36
407.377	23.15
407.732	23.85
408.087	24.45
408.442	25.18
408.796	25.81
409.151	26.66
409.506	27.37
409.86	28.03
410.215	28.71
410.57	29.4
410.924	30.17
411.279	30.78
411.633	31.51
411.987	32.12
412.342	32.86
412.696	33.51
413.05	34.26
413.404	34.89
413.758	35.59
414.113	36.32
414.467	36.91
414.821	37.63
415.175	38.39
415.529	39.06
415.882	39.6
416.236	40.06
416.59	40.56
416.944	41.03
417.298	41.53
417.651	41.97
418.005	42.43
418.358	42.89
418.712	43.4
419.065	43.79
419.419	44.25
419.772	44.66
420.126	45.15
420.479	45.48
420.832	45.81
421.185	46.03
421.539	46.3
421.892	46.51
422.245	46.88
422.598	47.24
422.951	47.56
423.304	47.78
423.657	48.07
424.01	48.34
424.363	48.62
424.715	49
425.068	49.28
425.421	49.63
425.773	49.88
426.126	50.16
426.479	50.53
426.831	50.66
427.184	50.78
427.536	51.03
427.889	51.26
428.241	51.55
428.593	51.86
428.945	52.02
429.298	52.28
429.65	52.59
430.002	52.77
430.354	53.14
430.706	53.39
431.058	53.49
431.41	53.67
431.762	53.71
432.114	53.9
432.466	53.95
432.817	54.09
433.169	54.35
433.521	54.37
433.872	54.5
434.224	54.67
434.576	54.81
434.927	54.99
435.279	55.23
435.63	55.26
435.981	55.63
436.333	55.77
436.684	55.82
437.035	55.81
437.387	55.75
437.738	55.89
438.089	56.01
438.44	56.05
438.791	56.18
439.142	56.16
439.493	56.33
439.844	56.35
440.195	56.31
440.545	56.49
440.896	56.73
441.247	56.83
441.598	56.85
441.948	56.71
442.299	56.87
442.649	56.97
443	57.07
443.35	57.21
443.701	57.22
444.051	57.2
444.401	57.56
444.752	57.45
445.102	57.36
445.452	57.43
445.802	57.61
446.152	57.87
446.502	57.97
446.852	57.98
447.202	58.1
447.552	58.31
447.902	58.41
448.252	58.55
448.602	57.74
448.952	58.01
449.301	58.11
449.651	58.28
450.001	58.46
450.35	58.58
450.7	58.74
451.049	58.98
451.399	59.13
451.748	59.08
452.097	59.21
452.447	59.4
452.796	59.52
453.145	59.39
453.494	59.57
453.843	59.52
454.193	59.61
454.542	59.72
454.891	59.63
455.239	59.59
455.588	59.71
455.937	59.81
456.286	59.87
456.635	59.97
456.984	59.91
457.332	61.07
457.681	61.05
458.03	60.99
458.378	60.88
458.727	61.04
459.075	61.12
459.423	61.34
459.772	61.06
460.12	61.09
460.468	61.17
460.817	61.14
461.165	60.76
461.513	60.9
461.861	61
462.209	60.86
462.557	61.07
462.905	61.2
463.253	61.12
463.601	61.12
463.949	61.19
464.297	61.1
464.644	61.02
464.992	61.04
465.34	61.07
465.687	61.12
466.035	61.07
466.383	61.09
466.73	61.18
467.078	61.1
467.425	60.87
467.772	60.77
468.12	60.58
468.467	60.64
468.814	60.62
469.161	60.61
469.508	60.42
469.856	60.63
470.203	60.43
470.55	60.49
470.897	60.34
471.243	60.29
471.59	60.13
471.937	60.04
472.284	59.94
472.631	59.86
472.977	59.77
473.324	59.84
473.671	59.54
474.017	59.3
474.364	59.23
474.71	59.04
475.057	58.82
475.403	58.58
475.749	58.41
476.096	58.56
476.442	58.48
476.788	58.28
477.134	58.22
477.48	58.12
477.826	57.94
478.172	57.93
478.518	57.9
478.864	57.77
479.21	57.69
479.556	57.66
479.902	57.53
480.248	57.39
480.593	57.21
480.939	57.28
481.285	57.18
481.63	57.32
481.976	57.08
482.321	57.13
482.667	57.24
483.012	57.18
483.357	57.18
483.703	57.12
484.048	57.29
484.393	57.37
484.738	57.22
485.084	57.17
485.429	57.25
485.774	57.32
486.119	57.28
486.464	57.29
486.808	57.21
487.153	57.03
487.498	57.09
487.843	56.95
488.188	56.92
488.532	56.91
488.877	56.89
489.222	56.96
489.566	56.83
489.911	56.92
490.255	56.83
490.6	56.85
490.944	56.66
491.288	56.49
491.633	56.42
491.977	56.25
492.321	56.25
492.665	56
493.009	55.81
493.353	55.66
493.697	55.49
494.041	55.5
494.385	55.35
494.729	55.23
495.073	55.2
495.417	55.18
495.76	55.03
496.104	54.77
496.448	54.69
496.791	54.53
497.135	54.39
497.479	54.29
497.822	54.2
498.165	54.14
498.509	53.94
498.852	53.75
499.196	53.73
499.539	53.67
499.882	53.53
500.225	53.35
500.568	53.48
500.911	53.28
501.254	53.25
501.597	53.22
501.94	53.12
502.283	53.14
502.626	52.95
502.969	52.72
503.312	52.6
503.654	52.6
503.997	52.47
504.34	52.42
504.682	52.38
505.025	52.33
505.367	52.34
505.71	52.16
506.052	52.11
506.395	51.99
506.737	51.77
507.079	51.58
507.421	51.43
507.764	51.3
508.106	51.22
508.448	51.26
508.79	51.23
509.132	50.91
509.474	50.86
509.816	50.61
510.158	50.5
510.499	50.43
510.841	50.29
511.183	50.17
511.525	50.11
511.866	50.04
512.208	49.67
512.549	49.62
512.891	49.67
513.232	49.64
513.574	49.48
513.915	49.2
514.256	49.24
514.598	49.15
514.939	49.05
515.28	49.04
515.621	48.98
515.962	48.84
516.303	48.75
516.644	48.76
516.985	48.48
517.326	48.42
517.667	48.43
518.008	48.25
518.349	48.25
518.69	48.18
519.03	48.12
519.371	48.09
519.712	47.99
520.052	47.94
520.393	47.94
520.733	47.99
521.074	47.78
521.414	47.62
521.754	47.37
522.095	47.23
522.435	47.27
522.775	47.13
523.115	47.14
523.455	46.91
523.795	46.77
524.135	46.82
524.475	46.65
524.815	46.37
525.155	46.32
525.495	46.15
525.835	45.93
526.175	45.8
526.514	45.71
526.854	45.6
527.194	45.55
527.533	45.31
527.873	45.02
528.212	44.88
528.552	44.81
528.891	44.57
529.23	44.49
529.57	44.36
529.909	44.13
530.248	44.01
530.587	44.07
530.927	44.02
531.266	43.78
531.605	43.53
531.944	43.55
532.283	43.34
532.621	42.98
532.96	43.02
533.299	42.92
533.638	42.63
533.977	42.57
534.315	42.44
534.654	42.41
534.992	42.39
535.331	42.28
535.67	42.03
536.008	42.09
536.346	41.98
536.685	41.75
537.023	41.5
537.361	41.37
537.7	41.23
538.038	41.23
538.376	41.3
538.714	41.3
539.052	41.2
539.39	41.04
539.728	41.01
540.066	40.85
540.404	40.85
540.741	40.69
541.079	40.72
541.417	40.66
541.755	40.67
542.092	40.63
542.43	40.62
542.767	40.63
543.105	40.46
543.442	40.4
543.78	40.48
544.117	40.52
544.454	40.36
544.792	40.34
545.129	40.4
545.466	40.51
545.803	40.61
546.14	40.67
546.477	40.61
546.814	40.49
547.151	40.58
547.488	40.47
547.825	40.39
548.162	40.43
548.499	40.44
548.835	40.33
549.172	40.34
549.509	40.27
549.845	40
550.182	39.88
550.518	39.88
550.855	39.91
551.191	39.91
551.528	39.82
551.864	39.78
552.2	39.64
552.537	39.57
552.873	39.49
553.209	39.69
553.545	39.79
553.881	39.82
554.217	39.85
554.553	39.67
554.889	39.62
555.225	39.58
555.561	39.52
555.896	39.53
556.232	39.61
556.568	39.65
556.903	39.78
557.239	39.73
557.575	39.94
557.91	40.08
558.245	40.33
558.581	40.56
558.916	40.43
559.252	40.38
559.587	40.33
559.922	40.5
560.257	40.64
560.592	40.71
560.928	40.73
561.263	40.73
561.598	40.67
561.933	40.73
562.267	40.84
562.602	40.68
562.937	40.8
563.272	40.94
563.607	40.98
563.941	40.92
564.276	40.86
564.611	40.85
564.945	40.77
565.28	40.67
565.614	40.74
565.949	40.75
566.283	40.83
566.617	40.96
566.951	41.03
567.286	41.15
567.62	41.19
567.954	41.32
568.288	41.42
568.622	41.34
568.956	41.33
569.29	41.4
569.624	41.46
569.958	41.53
570.292	41.55
570.626	41.43
570.959	41.44
571.293	41.4
571.627	41.31
571.96	41.43
572.294	41.48
572.627	41.61
572.961	41.77
573.294	41.82
573.627	41.94
573.961	41.93
574.294	41.96
574.627	41.99
574.961	41.85
575.294	41.75
575.627	41.68
575.96	41.74
576.293	41.67
576.626	41.55
576.959	41.67
577.292	41.68
577.624	41.65
577.957	41.75
578.29	41.72
578.623	41.79
578.955	41.92
579.288	42.02
579.62	42.04
579.953	42.12
580.285	42.12
580.618	42.23
580.95	42.16
581.282	42.13
581.615	42.1
581.947	42.2
582.279	42.28
582.611	42.3
582.943	42.31
583.275	42.41
583.607	42.53
583.939	42.72
584.271	42.78
584.603	42.95
584.935	43.18
585.267	43.21
585.598	43.27
585.93	43.48
586.262	43.54
586.593	43.73
586.925	43.73
587.256	43.73
587.588	43.77
587.919	43.95
588.25	44.09
588.582	44.15
588.913	44.17
589.244	44.34
589.575	44.57
589.907	44.83
590.238	44.71
590.569	44.83
590.9	45.04
591.231	45.16
591.562	45.33
591.892	45.34
592.223	45.48
592.554	45.57
592.885	45.53
593.215	45.62
593.546	45.61
593.877	45.66
594.207	45.66
594.538	45.8
594.868	46.01
595.198	46.18
595.529	46.26
595.859	46.34
596.189	46.48
596.52	46.67
596.85	46.87
597.18	46.98
597.51	47.14
597.84	47.15
598.17	47.27
598.5	47.58
598.83	47.78
599.16	48.08
599.489	48.15
599.819	48.44
600.149	48.84
600.479	49.13
600.808	49.44
601.138	49.68
601.467	49.85
601.797	50.15
602.126	50.53
602.456	50.81
602.785	50.99
603.114	51.04
603.443	51.29
603.773	51.76
604.102	52.21
604.431	52.57
604.76	52.86
605.089	52.97
605.418	53.19
605.747	53.47
606.076	53.66
606.405	53.99
606.733	54.24
607.062	54.49
607.391	54.43
607.72	54.75
608.048	54.98
608.377	54.96
608.705	55.07
609.034	55.28
609.362	55.69
609.69	56.01
610.019	56.5
610.347	56.76
610.675	56.89
611.004	57.02
611.332	57.53
611.66	57.72
611.988	57.94
612.316	58.05
612.644	58.14
612.972	58.27
613.3	58.57
613.627	59
613.955	59.26
614.283	59.49
614.611	59.56
614.938	59.66
615.266	59.98
615.593	60.4
615.921	60.71
616.248	60.99
616.576	61.68
616.903	62.28
617.23	62.45
617.558	62.94
617.885	63.22
618.212	63.34
618.539	63.89
618.866	64.42
619.193	64.75
619.52	64.63
619.847	64.72
620.174	64.87
620.501	65.06
620.828	65.06
621.155	65.24
621.481	65.5
621.808	65.74
622.135	65.82
622.461	65.98
622.788	65.86
623.114	66.32
623.441	66.26
623.767	66.31
624.093	66.45
624.42	66.86
624.746	67.27
625.072	67.31
625.398	67.63
625.725	67.72
626.051	67.99
626.377	68.27
626.703	68
627.029	68.09
627.354	68.8
627.68	68.95
628.006	69.42
628.332	69.67
628.658	69.99
628.983	70.32
629.309	70.11
629.634	70.68
629.96	70.67
630.285	71.16
630.611	71.47
630.936	72.37
631.262	71.95
631.587	72.43
631.912	72.68
632.237	73.21
632.562	73.37
632.887	72.78
633.213	72.57
633.538	72.98
633.863	74.02
634.187	74.16
634.512	73.88
634.837	73.83
635.162	73.06
635.487	72.19
635.811	72.27
636.136	72.28
636.461	72.21
636.785	72.22
637.11	72.84
637.434	73.17
637.758	73.12
638.083	73.44
638.407	73.54
638.731	73.39
639.056	73.23
639.38	73.42
639.704	73.54
640.028	73.73
640.352	73.87
640.676	73.04
641	73.76
641.324	73.58
641.648	73.2
641.972	72.49
642.295	72.99
642.619	73.43
642.943	74.04
643.266	74.57
643.59	75.57
643.913	75.51
644.237	75.67
644.56	75.8
644.884	76.29
645.207	76.39
645.53	76.55
645.854	76.39
646.177	76.33
646.5	75.88
646.823	76.08
647.146	76.7
647.469	76.97
647.792	76.82
648.115	76.39
648.438	76.42
648.761	77.82
649.084	77.32
649.406	77.6
649.729	76.83
650.052	76.65
650.374	76.65
650.697	76.51
651.019	76.28
651.342	76.53
651.664	76.31
651.987	76.39
652.309	76.45
652.631	76.53
652.953	76.52
653.276	76.17
653.598	76.36
653.92	76.21
654.242	76.23
654.564	76.36
654.886	76.31
655.208	75.92
655.53	75.92
655.851	76.01
656.173	76.22
