Data from T2_Reflection__147__02-11-56-776.txt Node

Date: Fri Jun 04 02:11:56 CEST 2021
User: mabdelazizm
Spectrometer: FLMS18565
Trigger mode: 0
Integration Time (sec): 2.000000E0
Scans to average: 1
Electric dark correction enabled: true
Nonlinearity correction enabled: false
Boxcar width: 12
XAxis mode: Wavelengths
Number of Pixels in Spectrum: 2048
>>>>>Begin Spectral Data<<<<<
179.071	288.79
179.452	1.69
179.833	11.98
180.214	-200
180.595	59.6
180.977	37.44
181.358	-791.84
181.739	206.06
182.12	39.81
182.501	8.2
182.882	32.16
183.262	37.87
183.643	26.03
184.024	-5.17
184.405	-2.8
184.786	21.28
185.166	26.7
185.547	22.26
185.927	24.3
186.308	26.6
186.689	43.43
187.069	43.05
187.449	43.6
187.83	40.18
188.21	36.39
188.59	39.2
188.971	35.76
189.351	33.22
189.731	35.08
190.111	36.93
190.491	35.56
190.871	31.31
191.251	32.53
191.631	33.65
192.011	30.67
192.391	26.84
192.771	28.22
193.151	25.08
193.531	28.27
193.91	31.18
194.29	29.56
194.67	31.15
195.049	29.13
195.429	29.93
195.808	31.68
196.188	25.62
196.567	22.91
196.946	25.09
197.326	24.61
197.705	25.13
198.084	24.69
198.464	20.02
198.843	19.23
199.222	17.84
199.601	15.47
199.98	19.1
200.359	19.39
200.738	21.78
201.117	20.69
201.496	21.99
201.875	20.97
202.254	19.88
202.632	20.98
203.011	22.22
203.39	18.71
203.768	16.91
204.147	14.89
204.525	16.13
204.904	13.43
205.282	13.27
205.661	13.28
206.039	13.11
206.418	13.88
206.796	14.53
207.174	14.43
207.552	15.7
207.931	15.22
208.309	15.95
208.687	14.19
209.065	16.63
209.443	14.62
209.821	14.34
210.199	12.16
210.577	12.34
210.954	12.92
211.332	12.1
211.71	10.51
212.088	10.58
212.465	9.87
212.843	10.82
213.221	11.49
213.598	12.47
213.976	12.39
214.353	13.2
214.731	11
215.108	10.92
215.485	11.04
215.863	8.86
216.24	8.64
216.617	9.1
216.994	9.2
217.371	10.2
217.749	10.61
218.126	10.1
218.503	8.55
218.88	7.74
219.256	7.71
219.633	8.17
220.01	7.26
220.387	6.29
220.764	7.75
221.14	9.23
221.517	9.96
221.894	9.77
222.27	9.94
222.647	9.36
223.023	8.72
223.4	8.29
223.776	6.72
224.153	6.72
224.529	6.25
224.905	6.05
225.282	5.93
225.658	6.38
226.034	5.45
226.41	5.23
226.786	5.53
227.162	5.04
227.538	4.92
227.914	4.83
228.29	4.25
228.666	3.97
229.042	3.6
229.418	3.87
229.793	4.17
230.169	3.77
230.545	2.83
230.92	2.84
231.296	2.81
231.672	2.59
232.047	2.27
232.422	2.26
232.798	2.16
233.173	2.52
233.549	2.56
233.924	2.78
234.299	2.97
234.674	2.91
235.05	2.87
235.425	2.95
235.8	2.54
236.175	2.37
236.55	2.37
236.925	2.54
237.3	2.49
237.675	2.58
238.049	2.49
238.424	2.55
238.799	2.42
239.174	2.23
239.548	2.32
239.923	2.43
240.297	2.32
240.672	2.41
241.046	2.38
241.421	2.37
241.795	2.32
242.17	2.24
242.544	2.05
242.918	2
243.293	1.82
243.667	1.84
244.041	1.82
244.415	1.75
244.789	1.73
245.163	1.86
245.537	1.92
245.911	1.91
246.285	1.88
246.659	1.83
247.033	1.8
247.406	1.93
247.78	1.86
248.154	1.79
248.528	1.86
248.901	1.87
249.275	1.87
249.648	1.95
250.022	1.86
250.395	1.82
250.769	1.87
251.142	1.89
251.515	1.92
251.888	2.04
252.262	2.1
252.635	2.2
253.008	2.11
253.381	2.12
253.754	2.09
254.127	2.17
254.5	2.16
254.873	2.14
255.246	2.12
255.619	2.09
255.992	2.12
256.364	2.15
256.737	2.06
257.11	2.09
257.483	2.06
257.855	2.11
258.228	2.11
258.6	2.14
258.973	2.03
259.345	1.98
259.718	1.95
260.09	1.92
260.462	1.81
260.834	1.8
261.207	1.74
261.579	1.75
261.951	1.75
262.323	1.73
262.695	1.67
263.067	1.7
263.439	1.64
263.811	1.67
264.183	1.59
264.555	1.66
264.927	1.71
265.298	1.77
265.67	1.73
266.042	1.76
266.413	1.76
266.785	1.8
267.156	1.76
267.528	1.66
267.899	1.62
268.271	1.66
268.642	1.7
269.013	1.83
269.385	1.9
269.756	1.91
270.127	1.92
270.498	1.91
270.87	1.83
271.241	1.76
271.612	1.71
271.983	1.73
272.354	1.68
272.724	1.65
273.095	1.66
273.466	1.65
273.837	1.63
274.208	1.6
274.578	1.47
274.949	1.5
275.32	1.45
275.69	1.42
276.061	1.44
276.431	1.43
276.802	1.5
277.172	1.5
277.542	1.42
277.913	1.43
278.283	1.37
278.653	1.3
279.023	1.32
279.394	1.3
279.764	1.31
280.134	1.39
280.504	1.39
280.874	1.43
281.244	1.43
281.614	1.39
281.983	1.42
282.353	1.37
282.723	1.38
283.093	1.29
283.462	1.29
283.832	1.3
284.202	1.32
284.571	1.29
284.941	1.33
285.31	1.39
285.68	1.44
286.049	1.41
286.418	1.41
286.788	1.53
287.157	1.52
287.526	1.49
287.895	1.51
288.264	1.53
288.633	1.5
289.002	1.52
289.371	1.42
289.74	1.4
290.109	1.38
290.478	1.35
290.847	1.36
291.216	1.31
291.585	1.3
291.953	1.31
292.322	1.38
292.691	1.33
293.059	1.33
293.428	1.31
293.796	1.33
294.165	1.26
294.533	1.21
294.901	1.21
295.27	1.21
295.638	1.2
296.006	1.12
296.374	1.09
296.743	1.09
297.111	1.1
297.479	1.05
297.847	1.01
298.215	0.99
298.583	1.01
298.95	1.04
299.318	1.05
299.686	1.05
300.054	1.06
300.422	1.07
300.789	1.06
301.157	1.02
301.525	0.97
301.892	0.99
302.26	1.04
302.627	1.02
302.994	1.02
303.362	1.06
303.729	1.08
304.097	0.96
304.464	0.99
304.831	0.98
305.198	0.95
305.565	0.93
305.932	0.91
306.299	0.88
306.666	0.92
307.033	0.95
307.4	0.99
307.767	0.92
308.134	0.9
308.501	0.94
308.867	0.88
309.234	0.92
309.601	0.92
309.967	0.89
310.334	0.91
310.701	0.91
311.067	0.96
311.433	0.94
311.8	0.9
312.166	0.86
312.533	0.87
312.899	0.87
313.265	0.92
313.631	0.89
313.997	0.86
314.363	0.82
314.729	0.85
315.096	0.86
315.461	0.84
315.827	0.79
316.193	0.74
316.559	0.6
316.925	0.73
317.291	0.67
317.656	0.57
318.022	0.63
318.388	0.54
318.753	0.54
319.119	0.53
319.484	0.57
319.85	0.54
320.215	0.51
320.581	0.49
320.946	0.53
321.311	0.58
321.676	0.53
322.042	0.47
322.407	0.39
322.772	0.27
323.137	0.31
323.502	0.34
323.867	0.38
324.232	0.32
324.597	0.35
324.962	0.39
325.327	0.51
325.691	0.65
326.056	0.51
326.421	0.58
326.785	0.67
327.15	0.63
327.514	0.66
327.879	0.65
328.243	0.68
328.608	0.75
328.972	0.76
329.337	0.68
329.701	0.61
330.065	0.6
330.429	0.6
330.794	0.56
331.158	0.71
331.522	0.85
331.886	0.96
332.25	0.91
332.614	0.86
332.978	0.8
333.342	0.87
333.705	0.96
334.069	0.92
334.433	0.86
334.797	0.78
335.16	0.79
335.524	0.78
335.887	0.71
336.251	0.72
336.614	0.72
336.978	0.73
337.341	0.67
337.705	0.59
338.068	0.65
338.431	0.66
338.794	0.61
339.158	0.58
339.521	0.52
339.884	0.53
340.247	0.3
340.61	0.22
340.973	0.14
341.336	0.16
341.699	0.18
342.062	0.15
342.424	0.09
342.787	-0.04
343.15	-0.04
343.512	-0.02
343.875	-0.03
344.238	0.04
344.6	-0.02
344.963	0.05
345.325	-0.02
345.688	0.01
346.05	-0.03
346.412	0.03
346.775	0.01
347.137	-0.04
347.499	0.04
347.861	0.18
348.223	0.22
348.585	0.22
348.947	0.22
349.309	0.28
349.671	0.18
350.033	0.27
350.395	0.27
350.757	0.35
351.118	0.33
351.48	0.36
351.842	0.32
352.203	0.32
352.565	0.27
352.927	0.27
353.288	0.17
353.65	0.2
354.011	0.15
354.372	0.17
354.734	0.2
355.095	0.31
355.456	0.33
355.817	0.27
356.179	0.32
356.54	0.28
356.901	0.31
357.262	0.27
357.623	0.31
357.984	0.33
358.345	0.37
358.705	0.53
359.066	0.44
359.427	0.5
359.788	0.42
360.148	0.51
360.509	0.44
360.87	0.41
361.23	0.4
361.591	0.41
361.951	0.52
362.312	0.65
362.672	0.73
363.032	0.76
363.393	0.74
363.753	0.66
364.113	0.71
364.473	0.73
364.833	0.73
365.193	0.68
365.553	0.69
365.913	0.58
366.273	0.57
366.633	0.54
366.993	0.66
367.353	0.63
367.713	0.55
368.072	0.63
368.432	0.45
368.792	0.49
369.151	0.49
369.511	0.5
369.87	0.53
370.23	0.57
370.589	0.62
370.949	0.5
371.308	0.49
371.667	0.43
372.027	0.41
372.386	0.52
372.745	0.55
373.104	0.43
373.463	0.39
373.822	0.46
374.181	0.4
374.54	0.34
374.899	0.46
375.258	0.54
375.617	0.63
375.975	0.6
376.334	0.67
376.693	0.8
377.052	0.82
377.41	0.99
377.769	1.03
378.127	1.03
378.486	1.13
378.844	1.31
379.202	1.36
379.561	1.28
379.919	1.21
380.277	1.21
380.636	1.29
380.994	1.38
381.352	1.41
381.71	1.42
382.068	1.5
382.426	1.51
382.784	1.65
383.142	1.82
383.5	1.94
383.857	2.06
384.215	2.06
384.573	2.23
384.931	2.28
385.288	2.31
385.646	2.37
386.003	2.51
386.361	2.59
386.718	2.65
387.076	2.75
387.433	2.8
387.791	2.77
388.148	2.84
388.505	3.06
388.862	3.32
389.22	3.46
389.577	3.62
389.934	3.79
390.291	3.97
390.648	4.25
391.005	4.48
391.362	4.74
391.718	4.87
392.075	5.06
392.432	5.41
392.789	5.59
393.145	5.92
393.502	6.14
393.859	6.39
394.215	6.78
394.572	7.07
394.928	7.39
395.285	7.68
395.641	8.08
395.997	8.51
396.354	9.02
396.71	9.6
397.066	10.05
397.422	10.6
397.778	11.07
398.134	11.66
398.491	12.14
398.846	12.51
399.202	13.11
399.558	13.62
399.914	14.11
400.27	14.6
400.626	15.27
400.981	15.87
401.337	16.44
401.693	17.04
402.048	17.71
402.404	18.3
402.759	19.04
403.115	19.65
403.47	20.39
403.826	21.18
404.181	21.91
404.536	22.75
404.892	23.3
405.247	23.94
405.602	24.66
405.957	25.34
406.312	25.89
406.667	26.6
407.022	27.27
407.377	28.07
407.732	28.97
408.087	29.7
408.442	30.48
408.796	31.3
409.151	32.22
409.506	32.96
409.86	33.73
410.215	34.46
410.57	35.29
410.924	35.88
411.279	36.6
411.633	37.34
411.987	38.16
412.342	38.88
412.696	39.51
413.05	40.2
413.404	40.84
413.758	41.7
414.113	42.43
414.467	42.98
414.821	43.78
415.175	44.57
415.529	45.28
415.882	45.77
416.236	46.25
416.59	46.91
416.944	47.48
417.298	48.04
417.651	48.43
418.005	48.91
418.358	49.47
418.712	50.03
419.065	50.58
419.419	51.01
419.772	51.48
420.126	51.93
420.479	52.28
420.832	52.61
421.185	52.93
421.539	53.21
421.892	53.64
422.245	54.01
422.598	54.32
422.951	54.7
423.304	54.93
423.657	55.16
424.01	55.56
424.363	55.87
424.715	56.24
425.068	56.69
425.421	57.04
425.773	57.43
426.126	57.74
426.479	58.14
426.831	58.34
427.184	58.52
427.536	58.72
427.889	59.03
428.241	59.37
428.593	59.65
428.945	59.91
429.298	60.21
429.65	60.41
430.002	60.66
430.354	61.04
430.706	61.35
431.058	61.36
431.41	61.55
431.762	61.69
432.114	61.87
432.466	62.11
432.817	62.31
433.169	62.47
433.521	62.69
433.872	62.82
434.224	62.77
434.576	62.75
434.927	63.04
435.279	63.22
435.63	63.5
435.981	63.75
436.333	63.96
436.684	64
437.035	63.98
437.387	64.06
437.738	64.13
438.089	64.21
438.44	64.44
438.791	64.58
439.142	64.6
439.493	64.55
439.844	64.71
440.195	64.72
440.545	64.78
440.896	65.02
441.247	65.2
441.598	65.11
441.948	65.2
442.299	65.42
442.649	65.39
443	65.65
443.35	65.78
443.701	65.66
444.051	65.83
444.401	65.85
444.752	65.76
445.102	65.86
445.452	65.74
445.802	66
446.152	66.17
446.502	66.25
446.852	66.21
447.202	66.14
447.552	66.16
447.902	66.16
448.252	66.24
448.602	66.78
448.952	66.95
449.301	66.97
449.651	67
450.001	66.8
450.35	66.91
450.7	66.86
451.049	66.89
451.399	67.05
451.748	66.9
452.097	66.85
452.447	66.83
452.796	66.91
453.145	66.9
453.494	66.97
453.843	66.61
454.193	66.69
454.542	66.56
454.891	66.37
455.239	66.28
455.588	66.3
455.937	66.33
456.286	66.38
456.635	66.42
456.984	66.43
457.332	65.81
457.681	65.93
458.03	65.82
458.378	65.78
458.727	65.97
459.075	65.84
459.423	65.98
459.772	65.68
460.12	65.56
460.468	65.42
460.817	65.35
461.165	65.28
461.513	65.05
461.861	64.96
462.209	64.79
462.557	64.98
462.905	65.03
463.253	64.8
463.601	64.83
463.949	64.86
464.297	64.62
464.644	64.47
464.992	64.18
465.34	64.02
465.687	63.84
466.035	63.67
466.383	63.46
466.73	63.5
467.078	63.35
467.425	63.16
467.772	63.11
468.12	62.85
468.467	62.76
468.814	62.77
469.161	62.86
469.508	62.71
469.856	62.61
470.203	62.35
470.55	62.28
470.897	62.14
471.243	62.02
471.59	61.82
471.937	61.72
472.284	61.66
472.631	61.5
472.977	61.4
473.324	61.31
473.671	61.22
474.017	61.08
474.364	60.95
474.71	60.94
475.057	60.61
475.403	60.34
475.749	60.15
476.096	59.98
476.442	59.8
476.788	59.66
477.134	59.55
477.48	59.31
477.826	59.11
478.172	58.93
478.518	58.87
478.864	58.75
479.21	58.52
479.556	58.29
479.902	58.05
480.248	57.81
480.593	57.57
480.939	57.3
481.285	57.19
481.63	57.04
481.976	56.82
482.321	56.8
482.667	56.58
483.012	56.55
483.357	56.39
483.703	56.26
484.048	56.25
484.393	56.12
484.738	56.09
485.084	55.91
485.429	55.72
485.774	55.68
486.119	55.47
486.464	55.29
486.808	55.14
487.153	54.82
487.498	54.68
487.843	54.49
488.188	54.43
488.532	54.37
488.877	54.18
489.222	54.04
489.566	53.98
489.911	53.79
490.255	53.66
490.6	53.55
490.944	53.23
491.288	53.15
491.633	52.95
491.977	52.67
492.321	52.58
492.665	52.18
493.009	51.91
493.353	51.67
493.697	51.59
494.041	51.54
494.385	51.25
494.729	51.15
495.073	51.06
495.417	51.03
495.76	50.84
496.104	50.67
496.448	50.48
496.791	50.26
497.135	49.86
497.479	49.7
497.822	49.43
498.165	49.13
498.509	48.94
498.852	48.69
499.196	48.43
499.539	48.21
499.882	47.94
500.225	47.76
500.568	47.57
500.911	47.42
501.254	47.44
501.597	47.48
501.94	47.24
502.283	47.05
502.626	46.85
502.969	46.62
503.312	46.34
503.654	46.08
503.997	45.74
504.34	45.63
504.682	45.38
505.025	45.35
505.367	45.12
505.71	44.97
506.052	44.78
506.395	44.68
506.737	44.56
507.079	44.47
507.421	44.32
507.764	44.15
508.106	44.01
508.448	44.04
508.79	43.86
509.132	43.83
509.474	43.6
509.816	43.28
510.158	43.04
510.499	42.95
510.841	42.75
511.183	42.61
511.525	42.51
511.866	42.52
512.208	42.27
512.549	42.16
512.891	42.06
513.232	42.03
513.574	41.82
513.915	41.67
514.256	41.6
514.598	41.49
514.939	41.39
515.28	41.26
515.621	41.02
515.962	40.95
516.303	41.02
516.644	40.9
516.985	40.53
517.326	40.26
517.667	40.03
518.008	39.9
518.349	39.96
518.69	39.97
519.03	39.78
519.371	39.68
519.712	39.47
520.052	39.32
520.393	39.11
520.733	39.16
521.074	39.01
521.414	38.87
521.754	38.55
522.095	38.41
522.435	38.32
522.775	38.19
523.115	38.2
523.455	37.96
523.795	37.8
524.135	37.72
524.475	37.53
524.815	37.16
525.155	37.14
525.495	37.05
525.835	36.99
526.175	36.94
526.514	36.84
526.854	36.68
527.194	36.42
527.533	36.29
527.873	36.14
528.212	36.16
528.552	36.1
528.891	35.96
529.23	35.75
529.57	35.67
529.909	35.52
530.248	35.44
530.587	35.3
530.927	35.2
531.266	35.04
531.605	34.77
531.944	34.75
532.283	34.43
532.621	34.26
532.96	34.26
533.299	34.21
533.638	34.04
533.977	33.98
534.315	33.83
534.654	33.74
534.992	33.59
535.331	33.37
535.67	33.15
536.008	32.95
536.346	32.84
536.685	32.65
537.023	32.6
537.361	32.42
537.7	32.22
538.038	32.07
538.376	31.89
538.714	31.91
539.052	31.88
539.39	31.86
539.728	31.78
540.066	31.73
540.404	31.69
540.741	31.73
541.079	31.67
541.417	31.58
541.755	31.42
542.092	31.18
542.43	31.15
542.767	31.02
543.105	30.95
543.442	30.87
543.78	30.84
544.117	30.88
544.454	30.94
544.792	31.01
545.129	31
545.466	30.69
545.803	30.72
546.14	30.79
546.477	30.83
546.814	30.86
547.151	30.83
547.488	30.74
547.825	30.62
548.162	30.68
548.499	30.76
548.835	30.65
549.172	30.59
549.509	30.45
549.845	30.27
550.182	30.3
550.518	30.38
550.855	30.4
551.191	30.49
551.528	30.41
551.864	30.48
552.2	30.49
552.537	30.53
552.873	30.45
553.209	30.21
553.545	30.1
553.881	30.32
554.217	30.46
554.553	30.51
554.889	30.46
555.225	30.42
555.561	30.47
555.896	30.39
556.232	30.48
556.568	30.39
556.903	30.4
557.239	30.43
557.575	30.59
557.91	30.7
558.245	30.78
558.581	30.86
558.916	30.89
559.252	30.82
559.587	30.76
559.922	30.81
560.257	30.86
560.592	30.86
560.928	30.82
561.263	30.97
561.598	31.23
561.933	31.18
562.267	31.29
562.602	31.22
562.937	31.2
563.272	31.22
563.607	31.2
563.941	31.04
564.276	31.08
564.611	31.1
564.945	31.32
565.28	31.26
565.614	31.32
565.949	31.34
566.283	31.36
566.617	31.32
566.951	31.41
567.286	31.54
567.62	31.57
567.954	31.65
568.288	31.71
568.622	31.55
568.956	31.63
569.29	31.72
569.624	31.7
569.958	31.61
570.292	31.66
570.626	31.74
570.959	31.8
571.293	31.8
571.627	31.8
571.96	32.01
572.294	32.18
572.627	32.3
572.961	32.35
573.294	32.34
573.627	32.38
573.961	32.39
574.294	32.39
574.627	32.45
574.961	32.56
575.294	32.53
575.627	32.43
575.96	32.4
576.293	32.35
576.626	32.3
576.959	32.46
577.292	32.42
577.624	32.45
577.957	32.46
578.29	32.5
578.623	32.59
578.955	32.55
579.288	32.67
579.62	32.73
579.953	32.81
580.285	32.71
580.618	32.79
580.95	32.66
581.282	32.67
581.615	32.66
581.947	32.74
582.279	32.83
582.611	32.94
582.943	33.01
583.275	33.08
583.607	33.16
583.939	33.31
584.271	33.47
584.603	33.68
584.935	33.75
585.267	33.88
585.598	34
585.93	34.05
586.262	34.15
586.593	34.27
586.925	34.34
587.256	34.38
587.588	34.42
587.919	34.56
588.25	34.59
588.582	34.77
588.913	34.75
589.244	34.89
589.575	35.08
589.907	35.15
590.238	35.18
590.569	35.32
590.9	35.36
591.231	35.41
591.562	35.6
591.892	35.71
592.223	35.91
592.554	36.11
592.885	36.2
593.215	36.47
593.546	36.44
593.877	36.52
594.207	36.65
594.538	36.79
594.868	36.99
595.198	37.13
595.529	37.29
595.859	37.29
596.189	37.45
596.52	37.75
596.85	37.79
597.18	37.83
597.51	37.96
597.84	37.96
598.17	38.16
598.5	38.35
598.83	38.61
599.16	39
599.489	39.21
599.819	39.37
600.149	39.67
600.479	39.94
600.808	40.09
601.138	40.22
601.467	40.34
601.797	40.74
602.126	41.05
602.456	41.35
602.785	41.62
603.114	41.74
603.443	41.91
603.773	42.26
604.102	42.54
604.431	42.71
604.76	42.95
605.089	43.26
605.418	43.61
605.747	43.89
606.076	44.16
606.405	44.47
606.733	44.8
607.062	45.04
607.391	45.12
607.72	45.41
608.048	45.61
608.377	45.77
608.705	46.16
609.034	46.52
609.362	46.92
609.69	47.44
610.019	47.7
610.347	47.9
610.675	48.06
611.004	48.3
611.332	48.82
611.66	49.41
611.988	49.58
612.316	49.74
612.644	50.07
612.972	50.16
613.3	50.54
613.627	50.86
613.955	51.47
614.283	52.08
614.611	52.33
614.938	52.48
615.266	52.66
615.593	52.91
615.921	53.37
616.248	53.82
616.576	54.37
616.903	54.68
617.23	55.09
617.558	55.7
617.885	55.99
618.212	56.43
618.539	57.14
618.866	57.57
619.193	57.96
619.52	58.18
619.847	58.25
620.174	58.69
620.501	59.23
620.828	59.46
621.155	59.98
621.481	60.12
621.808	60.46
622.135	60.67
622.461	60.46
622.788	60.65
623.114	60.83
623.441	60.85
623.767	60.92
624.093	60.86
624.42	61.39
624.746	61.89
625.072	62.06
625.398	61.91
625.725	61.75
626.051	61.89
626.377	62.21
626.703	62.22
627.029	62.2
627.354	62.26
627.68	62.28
628.006	62.47
628.332	62.67
628.658	62.7
628.983	62.97
629.309	63.27
629.634	63.74
629.96	64.08
630.285	64.26
630.611	64.52
630.936	64.89
631.262	65.12
631.587	65.89
631.912	66.77
632.237	67.5
632.562	67.55
632.887	67.12
633.213	66.91
633.538	68.21
633.863	68.99
634.187	69.02
634.512	68.63
634.837	68.94
635.162	69.3
635.487	69.32
635.811	69.83
636.136	69.96
636.461	70.37
636.785	70.9
637.11	71.49
637.434	71.51
637.758	71.67
638.083	71.64
638.407	71.67
638.731	72.25
639.056	72.66
639.38	72.27
639.704	72.63
640.028	72.94
640.352	72.73
640.676	72.07
641	72.64
641.324	72.4
641.648	71.45
641.972	72.12
642.295	72.86
642.619	73.02
642.943	72.42
643.266	72.13
643.59	72.9
643.913	72.21
644.237	72.32
644.56	71.99
644.884	72.27
645.207	71.99
645.53	72.15
645.854	71.65
646.177	71.99
646.5	72.42
646.823	72.67
647.146	72.17
647.469	72.74
647.792	72.93
648.115	72.82
648.438	73.52
648.761	76.32
649.084	77.74
649.406	78.63
649.729	78.3
650.052	77.92
650.374	78.22
650.697	78.62
651.019	78.79
651.342	78.95
651.664	78.82
651.987	79.05
652.309	79.36
652.631	79.53
652.953	79.51
653.276	79.47
653.598	79.81
653.92	79.85
654.242	80.07
654.564	80.05
654.886	80.05
655.208	80.32
655.53	80.39
655.851	80.34
656.173	80.49
656.495	80.61
656.816	79.82
657.138	79.54
657.46	79.57
