Data from T2_Reflection__141__02-05-54-788.txt Node

Date: Fri Jun 04 02:05:54 CEST 2021
User: mabdelazizm
Spectrometer: FLMS18565
Trigger mode: 0
Integration Time (sec): 2.000000E0
Scans to average: 1
Electric dark correction enabled: true
Nonlinearity correction enabled: false
Boxcar width: 12
XAxis mode: Wavelengths
Number of Pixels in Spectrum: 2048
>>>>>Begin Spectral Data<<<<<
179.071	-135.43
179.452	-166.24
179.833	-113.77
180.214	-2850
180.595	-64.82
180.977	-97.54
181.358	-1081.63
181.739	18.18
182.12	50.24
182.501	-17.77
182.882	-10.66
183.262	21.3
183.643	31.3
184.024	40.04
184.405	40.43
184.786	44.1
185.166	47.08
185.547	25.81
185.927	29.06
186.308	24.98
186.689	30.73
187.069	23.73
187.449	27.72
187.83	21.22
188.21	21.32
188.59	23.6
188.971	21.42
189.351	26.71
189.731	23.89
190.111	29.33
190.491	31.17
190.871	31.26
191.251	35.28
191.631	34.87
192.011	36.79
192.391	36.08
192.771	38.05
193.151	36.81
193.531	29.56
193.91	33.34
194.29	33.68
194.67	35.95
195.049	37.4
195.429	38.1
195.808	41.73
196.188	39.11
196.567	40.64
196.946	41.52
197.326	42.79
197.705	37.88
198.084	40.53
198.464	37.7
198.843	37.45
199.222	40.86
199.601	37.35
199.98	37.79
200.359	39.57
200.738	38.91
201.117	37.27
201.496	34.74
201.875	32.8
202.254	29.47
202.632	28.14
203.011	33.12
203.39	28.21
203.768	26.6
204.147	24.4
204.525	23.78
204.904	21.89
205.282	21.06
205.661	20.28
206.039	18.42
206.418	17.06
206.796	18.18
207.174	23.06
207.552	21.56
207.931	19.66
208.309	17.13
208.687	15.59
209.065	15.95
209.443	15.14
209.821	12.38
210.199	13.03
210.577	12.32
210.954	14.15
211.332	14.22
211.71	14.11
212.088	14.2
212.465	14.03
212.843	15.53
213.221	16.84
213.598	18.74
213.976	19.21
214.353	21.34
214.731	18.97
215.108	20.59
215.485	19.29
215.863	19.28
216.24	16.97
216.617	14.77
216.994	14.28
217.371	15.74
217.749	16.36
218.126	14.36
218.503	14.26
218.88	14.1
219.256	15.49
219.633	15.15
220.01	15.26
220.387	15.77
220.764	15.27
221.14	16.03
221.517	15.51
221.894	14.61
222.27	13.53
222.647	12.59
223.023	11.21
223.4	11.27
223.776	9.29
224.153	9.48
224.529	8.24
224.905	8.67
225.282	7.62
225.658	7.63
226.034	7.96
226.41	7.74
226.786	7.06
227.162	6.43
227.538	6.4
227.914	6.09
228.29	5.67
228.666	4.89
229.042	4.24
229.418	4.25
229.793	3.75
230.169	3.9
230.545	3.4
230.92	3.66
231.296	3.81
231.672	3.88
232.047	3.79
232.422	3.62
232.798	3.5
233.173	3.99
233.549	3.91
233.924	4.23
234.299	4.25
234.674	4.33
235.05	4.39
235.425	4.1
235.8	3.84
236.175	3.89
236.55	3.87
236.925	3.88
237.3	3.75
237.675	3.71
238.049	3.7
238.424	3.85
238.799	3.65
239.174	3.65
239.548	3.62
239.923	3.52
240.297	3.42
240.672	3.22
241.046	3.17
241.421	3.1
241.795	3.21
242.17	3.09
242.544	2.88
242.918	2.97
243.293	2.88
243.667	2.97
244.041	2.92
244.415	2.85
244.789	2.91
245.163	2.99
245.537	3.04
245.911	3.03
246.285	2.97
246.659	2.88
247.033	2.88
247.406	2.88
247.78	2.84
248.154	2.92
248.528	2.95
248.901	2.98
249.275	3.01
249.648	2.99
250.022	3
250.395	2.96
250.769	3.02
251.142	3.03
251.515	3.06
251.888	3.11
252.262	2.99
252.635	3.04
253.008	2.96
253.381	2.97
253.754	2.94
254.127	2.97
254.5	2.93
254.873	2.85
255.246	2.9
255.619	2.99
255.992	3.07
256.364	3.05
256.737	2.99
257.11	2.96
257.483	2.86
257.855	2.83
258.228	2.81
258.6	2.86
258.973	2.89
259.345	2.85
259.718	2.81
260.09	2.75
260.462	2.54
260.834	2.47
261.207	2.39
261.579	2.49
261.951	2.37
262.323	2.31
262.695	2.26
263.067	2.37
263.439	2.35
263.811	2.44
264.183	2.41
264.555	2.4
264.927	2.35
265.298	2.37
265.67	2.31
266.042	2.34
266.413	2.27
266.785	2.33
267.156	2.38
267.528	2.26
267.899	2.18
268.271	2.14
268.642	2.16
269.013	2.21
269.385	2.22
269.756	2.32
270.127	2.41
270.498	2.44
270.87	2.34
271.241	2.34
271.612	2.32
271.983	2.3
272.354	2.16
272.724	2.05
273.095	2.07
273.466	2.11
273.837	2.03
274.208	2.05
274.578	1.97
274.949	1.97
275.32	2.02
275.69	2.11
276.061	2.15
276.431	2.09
276.802	2.22
277.172	2.24
277.542	2.16
277.913	2.19
278.283	2.22
278.653	2.21
279.023	2.2
279.394	2.18
279.764	2.24
280.134	2.32
280.504	2.34
280.874	2.38
281.244	2.45
281.614	2.53
281.983	2.55
282.353	2.46
282.723	2.47
283.093	2.47
283.462	2.48
283.832	2.5
284.202	2.6
284.571	2.54
284.941	2.54
285.31	2.55
285.68	2.58
286.049	2.51
286.418	2.5
286.788	2.65
287.157	2.68
287.526	2.62
287.895	2.57
288.264	2.6
288.633	2.55
289.002	2.52
289.371	2.44
289.74	2.43
290.109	2.41
290.478	2.44
290.847	2.4
291.216	2.4
291.585	2.34
291.953	2.38
292.322	2.46
292.691	2.36
293.059	2.37
293.428	2.34
293.796	2.33
294.165	2.31
294.533	2.26
294.901	2.31
295.27	2.29
295.638	2.37
296.006	2.25
296.374	2.24
296.743	2.26
297.111	2.39
297.479	2.34
297.847	2.31
298.215	2.29
298.583	2.28
298.95	2.27
299.318	2.25
299.686	2.17
300.054	2.12
300.422	2.14
300.789	2.26
301.157	2.14
301.525	2.05
301.892	2.12
302.26	2.17
302.627	2.13
302.994	2.1
303.362	2.05
303.729	2.08
304.097	2.01
304.464	2.03
304.831	1.93
305.198	1.94
305.565	1.87
305.932	1.88
306.299	1.78
306.666	1.79
307.033	1.84
307.4	1.83
307.767	1.82
308.134	1.84
308.501	1.84
308.867	1.75
309.234	1.76
309.601	1.68
309.967	1.61
310.334	1.64
310.701	1.63
311.067	1.61
311.433	1.61
311.8	1.64
312.166	1.68
312.533	1.64
312.899	1.65
313.265	1.59
313.631	1.54
313.997	1.52
314.363	1.48
314.729	1.53
315.096	1.51
315.461	1.53
315.827	1.46
316.193	1.4
316.559	1.27
316.925	1.29
317.291	1.23
317.656	1.23
318.022	1.35
318.388	1.3
318.753	1.29
319.119	1.33
319.484	1.4
319.85	1.4
320.215	1.38
320.581	1.37
320.946	1.37
321.311	1.33
321.676	1.29
322.042	1.19
322.407	1.16
322.772	1.2
323.137	1.26
323.502	1.25
323.867	1.22
324.232	1.2
324.597	1.22
324.962	1.28
325.327	1.37
325.691	1.48
326.056	1.43
326.421	1.5
326.785	1.5
327.15	1.42
327.514	1.45
327.879	1.51
328.243	1.48
328.608	1.48
328.972	1.52
329.337	1.47
329.701	1.41
330.065	1.39
330.429	1.38
330.794	1.4
331.158	1.54
331.522	1.64
331.886	1.64
332.25	1.58
332.614	1.54
332.978	1.54
333.342	1.58
333.705	1.55
334.069	1.55
334.433	1.46
334.797	1.46
335.16	1.46
335.524	1.42
335.887	1.37
336.251	1.37
336.614	1.4
336.978	1.36
337.341	1.32
337.705	1.29
338.068	1.29
338.431	1.32
338.794	1.28
339.158	1.24
339.521	1.23
339.884	1.27
340.247	1.1
340.61	1.1
340.973	1.02
341.336	1.01
341.699	1.06
342.062	1.02
342.424	0.89
342.787	0.82
343.15	0.78
343.512	0.8
343.875	0.78
344.238	0.77
344.6	0.69
344.963	0.78
345.325	0.76
345.688	0.76
346.05	0.79
346.412	0.8
346.775	0.78
347.137	0.7
347.499	0.78
347.861	0.84
348.223	0.9
348.585	0.96
348.947	0.92
349.309	0.95
349.671	0.84
350.033	0.94
350.395	0.92
350.757	1
351.118	1.01
351.48	1.11
351.842	1.12
352.203	1.18
352.565	1.16
352.927	1.21
353.288	1.21
353.65	1.23
354.011	1.09
354.372	1.09
354.734	1.12
355.095	1.13
355.456	1.16
355.817	1.14
356.179	1.21
356.54	1.13
356.901	1.09
357.262	1.09
357.623	1.03
357.984	1.1
358.345	1.13
358.705	1.17
359.066	1.04
359.427	1.12
359.788	1.09
360.148	1.1
360.509	1.02
360.87	1.01
361.23	0.97
361.591	1
361.951	1.03
362.312	1.06
362.672	1.11
363.032	1.2
363.393	1.17
363.753	1.15
364.113	1.16
364.473	1.24
364.833	1.23
365.193	1.23
365.553	1.25
365.913	1.27
366.273	1.26
366.633	1.31
366.993	1.25
367.353	1.14
367.713	1.12
368.072	1.26
368.432	1.15
368.792	1.11
369.151	1.13
369.511	1.16
369.87	1.14
370.23	1.11
370.589	1.15
370.949	1.06
371.308	1.04
371.667	1
372.027	1.01
372.386	1.1
372.745	1.11
373.104	1.11
373.463	1.07
373.822	1.13
374.181	1.08
374.54	1.02
374.899	1
375.258	0.98
375.617	0.98
375.975	1.08
376.334	1.19
376.693	1.32
377.052	1.3
377.41	1.41
377.769	1.42
378.127	1.44
378.486	1.42
378.844	1.54
379.202	1.61
379.561	1.52
379.919	1.47
380.277	1.49
380.636	1.57
380.994	1.58
381.352	1.61
381.71	1.53
382.068	1.5
382.426	1.47
382.784	1.51
383.142	1.57
383.5	1.61
383.857	1.71
384.215	1.79
384.573	1.83
384.931	1.79
385.288	1.76
385.646	1.75
386.003	1.79
386.361	1.79
386.718	1.81
387.076	1.74
387.433	1.82
387.791	1.79
388.148	1.77
388.505	1.89
388.862	1.97
389.22	1.98
389.577	1.96
389.934	1.91
390.291	1.92
390.648	2.05
391.005	2.16
391.362	2.21
391.718	2.22
392.075	2.23
392.432	2.32
392.789	2.35
393.145	2.34
393.502	2.45
393.859	2.51
394.215	2.54
394.572	2.59
394.928	2.63
395.285	2.62
395.641	2.67
395.997	2.89
396.354	2.99
396.71	3.17
397.066	3.23
397.422	3.39
397.778	3.55
398.134	3.69
398.491	3.84
398.846	4.11
399.202	4.31
399.558	4.39
399.914	4.45
400.27	4.53
400.626	4.69
400.981	4.92
401.337	5.15
401.693	5.3
402.048	5.47
402.404	5.6
402.759	5.8
403.115	6
403.47	6.31
403.826	6.63
404.181	6.85
404.536	7.15
404.892	7.3
405.247	7.58
405.602	7.8
405.957	8.17
406.312	8.35
406.667	8.55
407.022	8.8
407.377	9.09
407.732	9.4
408.087	9.66
408.442	10.06
408.796	10.4
409.151	10.85
409.506	11.2
409.86	11.47
410.215	11.87
410.57	12.28
410.924	12.7
411.279	13.01
411.633	13.5
411.987	13.97
412.342	14.26
412.696	14.6
413.05	15.12
413.404	15.56
413.758	16.02
414.113	16.46
414.467	16.92
414.821	17.45
415.175	18.04
415.529	18.68
415.882	19.24
416.236	19.73
416.59	20.16
416.944	20.66
417.298	21.13
417.651	21.59
418.005	22.08
418.358	22.68
418.712	23.21
419.065	23.68
419.419	24.14
419.772	24.6
420.126	25.17
420.479	25.58
420.832	26.01
421.185	26.43
421.539	26.94
421.892	27.47
422.245	28.02
422.598	28.59
422.951	29.3
423.304	29.75
423.657	30.16
424.01	30.53
424.363	31
424.715	31.47
425.068	32.05
425.421	32.67
425.773	33.28
426.126	33.85
426.479	34.53
426.831	35.1
427.184	35.52
427.536	36
427.889	36.51
428.241	37.09
428.593	37.67
428.945	38.12
429.298	38.69
429.65	39.28
430.002	39.92
430.354	40.48
430.706	40.88
431.058	41.32
431.41	41.73
431.762	41.93
432.114	42.39
432.466	42.76
432.817	43.43
433.169	43.92
433.521	44.33
433.872	44.73
434.224	44.98
434.576	45.32
434.927	45.77
435.279	46.06
435.63	46.34
435.981	46.72
436.333	47.06
436.684	47.4
437.035	47.59
437.387	47.81
437.738	48.08
438.089	48.35
438.44	48.65
438.791	48.89
439.142	49.18
439.493	49.48
439.844	49.56
440.195	49.81
440.545	50.03
440.896	50.3
441.247	50.66
441.598	50.75
441.948	50.93
442.299	51.27
442.649	51.42
443	51.64
443.35	51.77
443.701	51.72
444.051	51.93
444.401	52.12
444.752	52.19
445.102	52.42
445.452	52.43
445.802	52.51
446.152	52.75
446.502	52.87
446.852	52.98
447.202	53.13
447.552	53.2
447.902	53.2
448.252	53.29
448.602	53.89
448.952	54.04
449.301	54.21
449.651	54.29
450.001	54.31
450.35	54.46
450.7	54.45
451.049	54.42
451.399	54.51
451.748	54.57
452.097	54.65
452.447	54.82
452.796	54.98
453.145	55.11
453.494	55.24
453.843	55.15
454.193	55.25
454.542	55.47
454.891	55.21
455.239	55.16
455.588	55.09
455.937	54.97
456.286	55.03
456.635	55.06
456.984	55.02
457.332	54.56
457.681	54.6
458.03	54.43
458.378	54.33
458.727	54.4
459.075	54.18
459.423	54.35
459.772	54.21
460.12	54.02
460.468	53.91
460.817	53.95
461.165	53.78
461.513	53.53
461.861	53.43
462.209	53.19
462.557	53.23
462.905	53.25
463.253	53.14
463.601	53.26
463.949	53.39
464.297	53.3
464.644	53.24
464.992	52.99
465.34	52.86
465.687	52.91
466.035	52.79
466.383	52.62
466.73	52.76
467.078	52.7
467.425	52.53
467.772	52.5
468.12	52.21
468.467	52.22
468.814	52.48
469.161	52.58
469.508	52.3
469.856	52.33
470.203	52.16
470.55	52
470.897	52.09
471.243	52.1
471.59	51.83
471.937	51.72
472.284	51.68
472.631	51.52
472.977	51.48
473.324	51.44
473.671	51.37
474.017	51.16
474.364	51
474.71	50.9
475.057	50.71
475.403	50.4
475.749	50.28
476.096	50.2
476.442	50.08
476.788	49.91
477.134	49.76
477.48	49.42
477.826	49.25
478.172	49.13
478.518	49.03
478.864	48.95
479.21	48.74
479.556	48.52
479.902	48.23
480.248	48
480.593	47.67
480.939	47.5
481.285	47.4
481.63	47.22
481.976	46.99
482.321	46.9
482.667	46.76
483.012	46.6
483.357	46.48
483.703	46.31
484.048	46.24
484.393	46.02
484.738	45.85
485.084	45.7
485.429	45.59
485.774	45.5
486.119	45.46
486.464	45.28
486.808	45.12
487.153	44.83
487.498	44.68
487.843	44.51
488.188	44.29
488.532	44.14
488.877	44.02
489.222	43.93
489.566	43.79
489.911	43.64
490.255	43.5
490.6	43.32
490.944	43.05
491.288	42.93
491.633	42.73
491.977	42.47
492.321	42.37
492.665	42.14
493.009	42.09
493.353	41.88
493.697	41.69
494.041	41.57
494.385	41.45
494.729	41.18
495.073	40.9
495.417	40.79
495.76	40.66
496.104	40.46
496.448	40.34
496.791	40.18
497.135	39.94
497.479	39.79
497.822	39.66
498.165	39.45
498.509	39.23
498.852	38.93
499.196	38.8
499.539	38.7
499.882	38.46
500.225	38.29
500.568	38.04
500.911	37.91
501.254	37.82
501.597	37.67
501.94	37.47
502.283	37.31
502.626	37.15
502.969	36.86
503.312	36.67
503.654	36.6
503.997	36.42
504.34	36.32
504.682	36.11
505.025	35.99
505.367	35.88
505.71	35.65
506.052	35.46
506.395	35.33
506.737	35.09
507.079	34.9
507.421	34.78
507.764	34.69
508.106	34.55
508.448	34.54
508.79	34.43
509.132	34.41
509.474	34.2
509.816	34.01
510.158	33.78
510.499	33.64
510.841	33.41
511.183	33.28
511.525	33.21
511.866	33.2
512.208	33.03
512.549	32.87
512.891	32.73
513.232	32.72
513.574	32.56
513.915	32.42
514.256	32.34
514.598	32.33
514.939	32.22
515.28	32.02
515.621	31.91
515.962	31.78
516.303	31.71
516.644	31.6
516.985	31.39
517.326	31.21
517.667	31.16
518.008	31.01
518.349	30.94
518.69	30.82
519.03	30.7
519.371	30.81
519.712	30.59
520.052	30.48
520.393	30.32
520.733	30.27
521.074	30.05
521.414	29.79
521.754	29.75
522.095	29.58
522.435	29.44
522.775	29.37
523.115	29.21
523.455	29
523.795	28.96
524.135	28.9
524.475	28.77
524.815	28.54
525.155	28.47
525.495	28.34
525.835	28.38
526.175	28.25
526.514	28.21
526.854	28.08
527.194	28
527.533	27.97
527.873	27.76
528.212	27.63
528.552	27.64
528.891	27.62
529.23	27.48
529.57	27.52
529.909	27.61
530.248	27.35
530.587	27.48
530.927	27.46
531.266	27.43
531.605	27.18
531.944	27.13
532.283	27.06
532.621	26.98
532.96	27.02
533.299	26.97
533.638	26.9
533.977	26.84
534.315	26.72
534.654	26.58
534.992	26.38
535.331	26.23
535.67	26.18
536.008	26.06
536.346	25.99
536.685	25.99
537.023	25.85
537.361	25.63
537.7	25.59
538.038	25.56
538.376	25.42
538.714	25.38
539.052	25.25
539.39	25.23
539.728	25.18
540.066	25.19
540.404	25.17
540.741	25.16
541.079	24.99
541.417	24.9
541.755	24.76
542.092	24.68
542.43	24.73
542.767	24.61
543.105	24.6
543.442	24.6
543.78	24.68
544.117	24.61
544.454	24.59
544.792	24.56
545.129	24.44
545.466	24.34
545.803	24.42
546.14	24.37
546.477	24.2
546.814	24.15
547.151	24.03
547.488	23.94
547.825	23.68
548.162	23.72
548.499	23.77
548.835	23.78
549.172	23.6
549.509	23.66
549.845	23.53
550.182	23.39
550.518	23.28
550.855	23.27
551.191	23.34
551.528	23.32
551.864	23.44
552.2	23.29
552.537	23.26
552.873	23.2
553.209	23.27
553.545	23.3
553.881	23.39
554.217	23.36
554.553	23.5
554.889	23.53
555.225	23.6
555.561	23.69
555.896	23.63
556.232	23.8
556.568	23.65
556.903	23.69
557.239	23.71
557.575	23.9
557.91	23.84
558.245	23.92
558.581	24.18
558.916	24.14
559.252	24.08
559.587	23.9
559.922	23.97
560.257	23.95
560.592	24.05
560.928	24.17
561.263	24.4
561.598	24.41
561.933	24.45
562.267	24.46
562.602	24.54
562.937	24.53
563.272	24.68
563.607	24.58
563.941	24.55
564.276	24.49
564.611	24.41
564.945	24.53
565.28	24.5
565.614	24.49
565.949	24.54
566.283	24.69
566.617	24.66
566.951	24.79
567.286	24.93
567.62	24.97
567.954	25.12
568.288	25.24
568.622	25.21
568.956	25.19
569.29	25.23
569.624	25.16
569.958	25.09
570.292	25.17
570.626	25.16
570.959	25.22
571.293	25.23
571.627	25.25
571.96	25.41
572.294	25.48
572.627	25.63
572.961	25.71
573.294	25.71
573.627	25.81
573.961	25.78
574.294	25.8
574.627	25.85
574.961	26.09
575.294	26.05
575.627	26.04
575.96	26.03
576.293	26
576.626	25.95
576.959	26.06
577.292	26.18
577.624	26.25
577.957	26.31
578.29	26.34
578.623	26.46
578.955	26.54
579.288	26.6
579.62	26.71
579.953	26.76
580.285	26.76
580.618	26.87
580.95	26.79
581.282	26.81
581.615	26.91
581.947	27.04
582.279	27.2
582.611	27.29
582.943	27.36
583.275	27.3
583.607	27.39
583.939	27.65
584.271	27.78
584.603	27.9
584.935	27.95
585.267	28.01
585.598	28.04
585.93	28.01
586.262	28.09
586.593	28.24
586.925	28.24
587.256	28.31
587.588	28.35
587.919	28.38
588.25	28.5
588.582	28.64
588.913	28.67
589.244	28.93
589.575	29.19
589.907	29.16
590.238	29.2
590.569	29.2
590.9	29.3
591.231	29.34
591.562	29.49
591.892	29.6
592.223	29.58
592.554	29.71
592.885	29.9
593.215	30.2
593.546	30.27
593.877	30.28
594.207	30.49
594.538	30.64
594.868	30.79
595.198	30.93
595.529	31.03
595.859	30.99
596.189	31.11
596.52	31.2
596.85	31.15
597.18	31.38
597.51	31.49
597.84	31.39
598.17	31.57
598.5	31.68
598.83	31.95
599.16	32.2
599.489	32.37
599.819	32.57
600.149	32.79
600.479	33.02
600.808	33.16
601.138	33.37
601.467	33.42
601.797	33.54
602.126	33.91
602.456	34.14
602.785	34.4
603.114	34.62
603.443	34.87
603.773	35.2
604.102	35.57
604.431	35.9
604.76	36.09
605.089	36.45
605.418	36.54
605.747	36.88
606.076	37.3
606.405	37.56
606.733	37.81
607.062	38.16
607.391	38.18
607.72	38.53
608.048	38.8
608.377	39.14
608.705	39.58
609.034	39.89
609.362	40.06
609.69	40.41
610.019	40.91
610.347	41.05
610.675	41.13
611.004	41.08
611.332	41.45
611.66	41.83
611.988	42.05
612.316	42.26
612.644	42.27
612.972	42.73
613.3	43.1
613.627	43.44
613.955	43.8
614.283	44.15
614.611	44.43
614.938	44.66
615.266	44.74
615.593	45.37
615.921	45.64
616.248	45.91
616.576	46.24
616.903	46.61
617.23	47.16
617.558	47.93
617.885	48.4
618.212	48.9
618.539	49.49
618.866	50.08
619.193	50.68
619.52	50.86
619.847	50.97
620.174	51.34
620.501	51.7
620.828	51.95
621.155	52.32
621.481	52.53
621.808	52.79
622.135	52.76
622.461	52.92
622.788	53.12
623.114	53.44
623.441	53.52
623.767	53.63
624.093	53.64
624.42	54.17
624.746	54.54
625.072	54.64
625.398	54.91
625.725	54.78
626.051	54.92
626.377	55
626.703	55.01
627.029	55.19
627.354	55.8
627.68	56.01
628.006	55.96
628.332	56.26
628.658	56.98
628.983	57.71
629.309	57.47
629.634	57.2
629.96	57.44
630.285	57.91
630.611	57.69
630.936	58.15
631.262	58.45
631.587	59.43
631.912	59.47
632.237	60.22
632.562	60.47
632.887	60.15
633.213	59.91
633.538	60.76
633.863	61.83
634.187	62.03
634.512	61.95
634.837	62.27
635.162	62.26
635.487	62.06
635.811	62.7
636.136	63.57
636.461	63.54
636.785	63.25
637.11	63.63
637.434	64.09
637.758	64.97
638.083	65.73
638.407	66.1
638.731	66.23
639.056	66.61
639.38	66.22
639.704	66.3
640.028	66.92
640.352	66.98
640.676	66.1
641	66.64
641.324	67.44
641.648	66.8
641.972	66.04
642.295	66.6
642.619	66.52
642.943	66.32
643.266	66.01
643.59	66.36
643.913	65.8
644.237	65.58
644.56	65.58
644.884	66.08
645.207	65.69
645.53	65.99
645.854	65.92
646.177	65.62
646.5	65.37
646.823	66.44
647.146	66.19
647.469	66.62
647.792	66.43
648.115	66.17
648.438	66.89
648.761	69.75
649.084	70.69
649.406	71.08
649.729	70.33
650.052	69.94
650.374	70.07
650.697	70.29
651.019	70.27
651.342	70.59
651.664	70.62
651.987	70.69
652.309	70.91
652.631	71.05
652.953	71.04
653.276	71.2
653.598	71.3
653.92	71.39
654.242	71.64
654.564	71.9
654.886	71.68
655.208	71.79
655.53	71.68
655.851	71.89
656.173	71.94
656.495	71.89
656.816	71.12
657.138	70.62
657.46	70.06
657.781	71.92
658.103	74.5
658.424	75.27
