Data from T2_Reflection__9__00-22-32-984.txt Node

Date: Fri Jun 04 00:22:32 CEST 2021
User: mabdelazizm
Spectrometer: FLMS18565
Trigger mode: 0
Integration Time (sec): 2.000000E0
Scans to average: 1
Electric dark correction enabled: true
Nonlinearity correction enabled: false
Boxcar width: 12
XAxis mode: Wavelengths
Number of Pixels in Spectrum: 2048
>>>>>Begin Spectral Data<<<<<
179.071	405.83
179.452	170.04
179.833	288.02
180.214	2900
180.595	102.76
180.977	223.15
181.358	1287.76
181.739	-815.15
182.12	-58.29
182.501	-81.78
182.882	-83.38
183.262	-71.6
183.643	-14.56
184.024	-37.51
184.405	-15.36
184.786	-3.91
185.166	11.92
185.547	25.91
185.927	22.27
186.308	29.12
186.689	35.08
187.069	33.02
187.449	38.38
187.83	41.21
188.21	41.11
188.59	42.43
188.971	43.24
189.351	53.14
189.731	41.42
190.111	40.11
190.491	41.39
190.871	41.22
191.251	42.67
191.631	36.73
192.011	36.06
192.391	34.73
192.771	34.55
193.151	32.66
193.531	34.36
193.91	33.83
194.29	35.65
194.67	37.21
195.049	36.71
195.429	34.49
195.808	35.76
196.188	32.73
196.567	29.98
196.946	30.46
197.326	27.24
197.705	26.52
198.084	26.51
198.464	22.25
198.843	18.23
199.222	23.7
199.601	18.26
199.98	20.42
200.359	20.67
200.738	25.45
201.117	28.16
201.496	27.45
201.875	30.64
202.254	29.62
202.632	27.55
203.011	28.08
203.39	27.3
203.768	26.69
204.147	26.04
204.525	21.87
204.904	23.16
205.282	22.02
205.661	20.86
206.039	21.72
206.418	23.55
206.796	25.23
207.174	28.7
207.552	30.32
207.931	30.46
208.309	29.49
208.687	29.81
209.065	32.33
209.443	30.45
209.821	29.61
210.199	27.74
210.577	24.18
210.954	24.89
211.332	22
211.71	21.89
212.088	20.88
212.465	21.67
212.843	21.88
213.221	19.26
213.598	19.16
213.976	20.58
214.353	19.83
214.731	19.57
215.108	20.66
215.485	20.39
215.863	17.49
216.24	14.9
216.617	11.55
216.994	9.67
217.371	10.65
217.749	11.9
218.126	9.56
218.503	8.15
218.88	7.97
219.256	7.63
219.633	6.53
220.01	8.07
220.387	8.8
220.764	10.02
221.14	10.84
221.517	11.19
221.894	10.29
222.27	10.11
222.647	10.1
223.023	9.23
223.4	9.11
223.776	7.89
224.153	8.1
224.529	6.73
224.905	5.57
225.282	5.57
225.658	5.49
226.034	5
226.41	5.41
226.786	5.18
227.162	4.73
227.538	5.08
227.914	4.88
228.29	4.31
228.666	4.14
229.042	4.35
229.418	4.12
229.793	3.69
230.169	3.38
230.545	3.25
230.92	3.57
231.296	3.42
231.672	3.32
232.047	3.51
232.422	3.33
232.798	3.36
233.173	3.53
233.549	3.69
233.924	4.19
234.299	4.47
234.674	4.65
235.05	4.88
235.425	4.94
235.8	4.63
236.175	4.53
236.55	4.6
236.925	4.55
237.3	4.47
237.675	4.64
238.049	4.5
238.424	4.54
238.799	4.5
239.174	4.63
239.548	4.66
239.923	4.5
240.297	4.43
240.672	4.6
241.046	4.6
241.421	4.43
241.795	4.51
242.17	4.55
242.544	4.39
242.918	4.38
243.293	4.13
243.667	4.17
244.041	4.06
244.415	3.97
244.789	4.04
245.163	4.14
245.537	4.24
245.911	4.24
246.285	4.25
246.659	4.34
247.033	4.3
247.406	4.4
247.78	4.34
248.154	4.37
248.528	4.39
248.901	4.37
249.275	4.42
249.648	4.43
250.022	4.34
250.395	4.36
250.769	4.42
251.142	4.36
251.515	4.26
251.888	4.38
252.262	4.27
252.635	4.42
253.008	4.43
253.381	4.4
253.754	4.34
254.127	4.29
254.5	4.21
254.873	4.1
255.246	4.06
255.619	4.09
255.992	4.1
256.364	4.05
256.737	3.96
257.11	3.95
257.483	3.86
257.855	3.75
258.228	3.72
258.6	3.72
258.973	3.67
259.345	3.66
259.718	3.55
260.09	3.54
260.462	3.5
260.834	3.51
261.207	3.44
261.579	3.49
261.951	3.38
262.323	3.22
262.695	3.23
263.067	3.29
263.439	3.27
263.811	3.33
264.183	3.29
264.555	3.3
264.927	3.26
265.298	3.26
265.67	3.29
266.042	3.34
266.413	3.34
266.785	3.45
267.156	3.55
267.528	3.54
267.899	3.48
268.271	3.46
268.642	3.43
269.013	3.51
269.385	3.53
269.756	3.51
270.127	3.52
270.498	3.58
270.87	3.55
271.241	3.53
271.612	3.58
271.983	3.51
272.354	3.51
272.724	3.47
273.095	3.48
273.466	3.5
273.837	3.49
274.208	3.5
274.578	3.38
274.949	3.42
275.32	3.4
275.69	3.35
276.061	3.32
276.431	3.28
276.802	3.26
277.172	3.29
277.542	3.19
277.913	3.18
278.283	3.16
278.653	3.14
279.023	3.21
279.394	3.2
279.764	3.16
280.134	3.15
280.504	3.14
280.874	3.18
281.244	3.2
281.614	3.24
281.983	3.22
282.353	3.13
282.723	3.16
283.093	3.08
283.462	3.1
283.832	3.12
284.202	3.12
284.571	3.09
284.941	3.16
285.31	3.14
285.68	3.11
286.049	3.11
286.418	3.03
286.788	3.13
287.157	3.15
287.526	3.17
287.895	3.09
288.264	3.01
288.633	2.96
289.002	2.92
289.371	2.89
289.74	2.86
290.109	2.79
290.478	2.82
290.847	2.77
291.216	2.78
291.585	2.78
291.953	2.77
292.322	2.83
292.691	2.77
293.059	2.74
293.428	2.65
293.796	2.6
294.165	2.55
294.533	2.48
294.901	2.51
295.27	2.48
295.638	2.65
296.006	2.53
296.374	2.55
296.743	2.47
297.111	2.58
297.479	2.6
297.847	2.6
298.215	2.61
298.583	2.56
298.95	2.57
299.318	2.58
299.686	2.54
300.054	2.51
300.422	2.5
300.789	2.5
301.157	2.48
301.525	2.4
301.892	2.47
302.26	2.52
302.627	2.55
302.994	2.58
303.362	2.58
303.729	2.66
304.097	2.59
304.464	2.65
304.831	2.55
305.198	2.6
305.565	2.51
305.932	2.52
306.299	2.4
306.666	2.41
307.033	2.41
307.4	2.44
307.767	2.46
308.134	2.5
308.501	2.45
308.867	2.44
309.234	2.41
309.601	2.33
309.967	2.32
310.334	2.28
310.701	2.32
311.067	2.24
311.433	2.28
311.8	2.26
312.166	2.18
312.533	2.13
312.899	2.15
313.265	2.17
313.631	2.13
313.997	2.04
314.363	2.03
314.729	2.02
315.096	2.07
315.461	2.11
315.827	2.1
316.193	2.06
316.559	1.98
316.925	2
317.291	1.95
317.656	2.02
318.022	2.07
318.388	2
318.753	2.05
319.119	2.09
319.484	2.14
319.85	2.06
320.215	2.12
320.581	2.07
320.946	2.12
321.311	2.21
321.676	2.23
322.042	2.19
322.407	2.09
322.772	1.98
323.137	2.02
323.502	2
323.867	2.09
324.232	1.98
324.597	2
324.962	2.01
325.327	2.07
325.691	2.13
326.056	2.06
326.421	2.02
326.785	1.97
327.15	1.92
327.514	2
327.879	2
328.243	1.97
328.608	1.96
328.972	2
329.337	1.9
329.701	1.85
330.065	1.83
330.429	1.77
330.794	1.74
331.158	1.75
331.522	1.86
331.886	1.93
332.25	1.92
332.614	1.9
332.978	1.83
333.342	1.88
333.705	1.91
334.069	1.9
334.433	1.8
334.797	1.71
335.16	1.74
335.524	1.8
335.887	1.71
336.251	1.68
336.614	1.7
336.978	1.66
337.341	1.65
337.705	1.54
338.068	1.54
338.431	1.5
338.794	1.45
339.158	1.4
339.521	1.4
339.884	1.45
340.247	1.33
340.61	1.27
340.973	1.27
341.336	1.31
341.699	1.35
342.062	1.29
342.424	1.19
342.787	1.1
343.15	1.04
343.512	1.17
343.875	1.21
344.238	1.15
344.6	1.08
344.963	1.13
345.325	1.1
345.688	1.06
346.05	1.09
346.412	1.1
346.775	1.17
347.137	1.14
347.499	1.16
347.861	1.19
348.223	1.27
348.585	1.28
348.947	1.21
349.309	1.25
349.671	1.2
350.033	1.28
350.395	1.2
350.757	1.25
351.118	1.28
351.48	1.4
351.842	1.5
352.203	1.61
352.565	1.52
352.927	1.51
353.288	1.56
353.65	1.57
354.011	1.53
354.372	1.61
354.734	1.61
355.095	1.66
355.456	1.72
355.817	1.75
356.179	1.75
356.54	1.8
356.901	1.78
357.262	1.76
357.623	1.67
357.984	1.67
358.345	1.73
358.705	1.82
359.066	1.75
359.427	1.89
359.788	1.85
360.148	1.92
360.509	1.82
360.87	1.8
361.23	1.73
361.591	1.73
361.951	1.86
362.312	1.97
362.672	2.02
363.032	2
363.393	1.88
363.753	1.84
364.113	1.86
364.473	1.87
364.833	1.85
365.193	1.92
365.553	1.93
365.913	1.94
366.273	1.95
366.633	2
366.993	2.11
367.353	2.04
367.713	1.99
368.072	2.02
368.432	1.8
368.792	1.8
369.151	1.77
369.511	1.82
369.87	1.74
370.23	1.78
370.589	1.8
370.949	1.74
371.308	1.72
371.667	1.7
372.027	1.78
372.386	1.89
372.745	1.91
373.104	1.87
373.463	1.85
373.822	1.86
374.181	1.79
374.54	1.77
374.899	1.8
375.258	1.74
375.617	1.83
375.975	1.87
376.334	1.84
376.693	1.96
377.052	1.97
377.41	2.18
377.769	2.18
378.127	2.19
378.486	2.27
378.844	2.37
379.202	2.37
379.561	2.35
379.919	2.27
380.277	2.18
380.636	2.32
380.994	2.39
381.352	2.49
381.71	2.57
382.068	2.61
382.426	2.55
382.784	2.7
383.142	2.8
383.5	2.87
383.857	3
384.215	3.12
384.573	3.22
384.931	3.24
385.288	3.41
385.646	3.4
386.003	3.55
386.361	3.63
386.718	3.69
387.076	3.76
387.433	3.81
387.791	3.87
388.148	3.93
388.505	4.08
388.862	4.35
389.22	4.51
389.577	4.58
389.934	4.71
390.291	4.85
390.648	5.04
391.005	5.35
391.362	5.68
391.718	5.83
392.075	6.01
392.432	6.33
392.789	6.53
393.145	6.74
393.502	7.07
393.859	7.25
394.215	7.36
394.572	7.64
394.928	7.88
395.285	8.17
395.641	8.55
395.997	8.99
396.354	9.36
396.71	9.78
397.066	10.24
397.422	10.78
397.778	11.11
398.134	11.59
398.491	11.95
398.846	12.38
399.202	12.93
399.558	13.41
399.914	13.7
400.27	14.05
400.626	14.51
400.981	15.05
401.337	15.48
401.693	15.93
402.048	16.42
402.404	16.85
402.759	17.46
403.115	18.08
403.47	18.69
403.826	19.31
404.181	19.83
404.536	20.36
404.892	20.75
405.247	21.35
405.602	21.86
405.957	22.31
406.312	22.76
406.667	23.31
407.022	23.85
407.377	24.58
407.732	25.15
408.087	25.57
408.442	26.04
408.796	26.66
409.151	27.35
409.506	27.88
409.86	28.39
410.215	28.87
410.57	29.43
410.924	30.01
411.279	30.5
411.633	31.03
411.987	31.65
412.342	32.21
412.696	32.67
413.05	33.27
413.404	33.82
413.758	34.4
414.113	34.86
414.467	35.34
414.821	35.99
415.175	36.5
415.529	36.97
415.882	37.32
416.236	37.55
416.59	37.94
416.944	38.33
417.298	38.89
417.651	39.16
418.005	39.47
418.358	39.94
418.712	40.26
419.065	40.7
419.419	41.01
419.772	41.26
420.126	41.56
420.479	41.66
420.832	42.03
421.185	42.19
421.539	42.45
421.892	42.51
422.245	42.79
422.598	43.06
422.951	43.41
423.304	43.63
423.657	43.73
424.01	43.98
424.363	44.22
424.715	44.61
425.068	44.98
425.421	45.31
425.773	45.56
426.126	45.67
426.479	46.02
426.831	46.15
427.184	46.27
427.536	46.42
427.889	46.59
428.241	46.81
428.593	47.11
428.945	47.34
429.298	47.79
429.65	47.94
430.002	48.17
430.354	48.37
430.706	48.66
431.058	48.7
431.41	48.79
431.762	48.83
432.114	48.91
432.466	49.07
432.817	49.16
433.169	49.26
433.521	49.29
433.872	49.26
434.224	49.32
434.576	49.3
434.927	49.39
435.279	49.41
435.63	49.58
435.981	49.76
436.333	50.01
436.684	50.1
437.035	50.04
437.387	49.86
437.738	49.71
438.089	49.6
438.44	49.49
438.791	49.47
439.142	49.47
439.493	49.54
439.844	49.56
440.195	49.55
440.545	49.48
440.896	49.51
441.247	49.5
441.598	49.48
441.948	49.63
442.299	49.6
442.649	49.71
443	49.8
443.35	50.01
443.701	50.02
444.051	50.12
444.401	50.09
444.752	50.01
445.102	50.03
445.452	50.01
445.802	50.09
446.152	50.46
446.502	50.6
446.852	50.63
447.202	50.62
447.552	50.69
447.902	50.81
448.252	50.86
448.602	51.1
448.952	51.24
449.301	51.25
449.651	51.35
450.001	51.41
450.35	51.5
450.7	51.54
451.049	51.71
451.399	51.78
451.748	51.72
452.097	51.61
452.447	51.55
452.796	51.66
453.145	51.82
453.494	51.86
453.843	51.77
454.193	51.83
454.542	52.08
454.891	51.86
455.239	51.98
455.588	51.97
455.937	52.05
456.286	52.1
456.635	52.05
456.984	52.17
457.332	51.99
457.681	52.07
458.03	52.31
458.378	52.39
458.727	52.49
459.075	52.43
459.423	52.33
459.772	52.18
460.12	52.15
460.468	52.15
460.817	52.18
461.165	52.2
461.513	52
461.861	51.84
462.209	51.77
462.557	51.79
462.905	51.79
463.253	51.62
463.601	51.62
463.949	51.7
464.297	51.66
464.644	51.78
464.992	51.84
465.34	51.88
465.687	51.69
466.035	51.62
466.383	51.35
466.73	51.24
467.078	51.1
467.425	50.93
467.772	50.93
468.12	50.72
468.467	50.64
468.814	50.54
469.161	50.38
469.508	50.4
469.856	50.48
470.203	50.36
470.55	50.39
470.897	50.12
471.243	50.11
471.59	49.85
471.937	49.65
472.284	49.72
472.631	49.5
472.977	49.45
473.324	49.2
473.671	48.99
474.017	48.65
474.364	48.52
474.71	48.43
475.057	48.32
475.403	48.18
475.749	48
476.096	47.97
476.442	47.8
476.788	47.81
477.134	47.7
477.48	47.66
477.826	47.58
478.172	47.39
478.518	47.24
478.864	47.15
479.21	47.07
479.556	47.12
479.902	47.06
480.248	47.07
480.593	47.06
480.939	46.93
481.285	46.92
481.63	46.86
481.976	46.91
482.321	46.94
482.667	46.98
483.012	47.01
483.357	47.02
483.703	47.08
484.048	47.03
484.393	47.04
484.738	46.94
485.084	46.99
485.429	46.91
485.774	47.03
486.119	47.02
486.464	47.11
486.808	47.13
487.153	47.01
487.498	47.06
487.843	46.91
488.188	46.98
488.532	46.92
488.877	46.86
489.222	46.89
489.566	46.84
489.911	46.73
490.255	46.73
490.6	46.55
490.944	46.39
491.288	46.32
491.633	46.2
491.977	45.96
492.321	45.84
492.665	45.72
493.009	45.56
493.353	45.48
493.697	45.35
494.041	45.31
494.385	45.16
494.729	45.02
495.073	44.87
495.417	44.74
495.76	44.56
496.104	44.43
496.448	44.41
496.791	44.12
497.135	43.97
497.479	43.88
497.822	43.74
498.165	43.53
498.509	43.46
498.852	43.28
499.196	43.22
499.539	43.17
499.882	43.02
500.225	42.93
500.568	42.83
500.911	42.79
501.254	42.73
501.597	42.76
501.94	42.54
502.283	42.4
502.626	42.18
502.969	41.99
503.312	41.81
503.654	41.64
503.997	41.48
504.34	41.6
504.682	41.4
505.025	41.33
505.367	41.24
505.71	41.08
506.052	40.96
506.395	40.82
506.737	40.79
507.079	40.64
507.421	40.53
507.764	40.32
508.106	40.13
508.448	40.11
508.79	39.85
509.132	39.81
509.474	39.65
509.816	39.47
510.158	39.27
510.499	39.34
510.841	39.22
511.183	39.21
511.525	39.12
511.866	39.12
512.208	39
512.549	38.96
512.891	38.74
513.232	38.65
513.574	38.58
513.915	38.42
514.256	38.37
514.598	38.3
514.939	38.24
515.28	38.13
515.621	38.01
515.962	37.9
516.303	37.86
516.644	37.81
516.985	37.69
517.326	37.7
517.667	37.59
518.008	37.47
518.349	37.43
518.69	37.39
519.03	37.22
519.371	37.19
519.712	37.03
520.052	36.95
520.393	36.9
520.733	36.82
521.074	36.7
521.414	36.51
521.754	36.45
522.095	36.25
522.435	36.24
522.775	36.14
523.115	36.04
523.455	35.77
523.795	35.69
524.135	35.52
524.475	35.4
524.815	35.29
525.155	35.2
525.495	35.03
525.835	34.97
526.175	34.94
526.514	34.88
526.854	34.76
527.194	34.68
527.533	34.64
527.873	34.52
528.212	34.45
528.552	34.42
528.891	34.22
529.23	34.16
529.57	34.06
529.909	33.93
530.248	33.84
530.587	33.88
530.927	33.8
531.266	33.58
531.605	33.5
531.944	33.54
532.283	33.45
532.621	33.4
532.96	33.38
533.299	33.4
533.638	33.2
533.977	33.13
534.315	33
534.654	32.85
534.992	32.74
535.331	32.57
535.67	32.44
536.008	32.41
536.346	32.27
536.685	32.23
537.023	32.1
537.361	32.13
537.7	32.02
538.038	31.84
538.376	31.84
538.714	31.88
539.052	31.67
539.39	31.49
539.728	31.68
540.066	31.46
540.404	31.44
540.741	31.26
541.079	31.14
541.417	31.06
541.755	30.93
542.092	30.78
542.43	30.73
542.767	30.58
543.105	30.71
543.442	30.59
543.78	30.67
544.117	30.54
544.454	30.4
544.792	30.46
545.129	30.39
545.466	30.28
545.803	30.23
546.14	30.2
546.477	30.2
546.814	30.29
547.151	30.23
547.488	30.17
547.825	30.26
548.162	30.14
548.499	30.25
548.835	30.2
549.172	30.19
549.509	30.3
549.845	30.28
550.182	30.32
550.518	30.42
550.855	30.5
551.191	30.56
551.528	30.38
551.864	30.55
552.2	30.54
552.537	30.77
552.873	30.74
553.209	30.72
553.545	30.67
553.881	30.83
554.217	30.79
554.553	30.83
554.889	30.79
555.225	30.54
555.561	30.47
555.896	30.4
556.232	30.41
556.568	30.42
556.903	30.35
557.239	30.33
557.575	30.5
557.91	30.5
558.245	30.49
558.581	30.55
558.916	30.65
559.252	30.56
559.587	30.52
559.922	30.47
560.257	30.4
560.592	30.34
560.928	30.29
561.263	30.38
561.598	30.37
561.933	30.34
562.267	30.25
562.602	30.23
562.937	30.2
563.272	30.52
563.607	30.78
563.941	30.81
564.276	30.85
564.611	30.94
564.945	30.9
565.28	31.02
565.614	31.17
565.949	31.25
566.283	31.23
566.617	31.27
566.951	31.24
567.286	31.18
567.62	31.29
567.954	31.35
568.288	31.52
568.622	31.62
568.956	31.83
569.29	31.82
569.624	31.83
569.958	31.85
570.292	32.04
570.626	32.07
570.959	32.09
571.293	32.1
571.627	31.98
571.96	32.03
572.294	32.1
572.627	32.25
572.961	32.33
573.294	32.36
573.627	32.34
573.961	32.27
574.294	32.19
574.627	32.3
574.961	32.32
575.294	32.3
575.627	32.31
575.96	32.31
576.293	32.31
576.626	32.26
576.959	32.18
577.292	32.15
577.624	32.21
577.957	32.26
578.29	32.29
578.623	32.27
578.955	32.34
579.288	32.36
579.62	32.47
579.953	32.55
580.285	32.6
580.618	32.63
580.95	32.55
581.282	32.41
581.615	32.5
581.947	32.65
582.279	32.74
582.611	32.81
582.943	32.8
583.275	32.88
583.607	33.07
583.939	33.22
584.271	33.29
584.603	33.49
584.935	33.56
585.267	33.78
585.598	33.85
585.93	33.95
586.262	34.07
586.593	34.24
586.925	34.35
587.256	34.39
587.588	34.52
587.919	34.67
588.25	34.67
588.582	34.68
588.913	34.77
589.244	34.93
589.575	35.23
589.907	35.3
590.238	35.34
590.569	35.37
590.9	35.56
591.231	35.6
591.562	35.59
591.892	35.67
592.223	35.77
592.554	35.92
592.885	36.05
593.215	36.24
593.546	36.34
593.877	36.43
594.207	36.54
594.538	36.67
594.868	36.74
595.198	36.86
595.529	37.02
595.859	37.05
596.189	37.08
596.52	37.32
596.85	37.54
597.18	37.66
597.51	37.8
597.84	37.83
598.17	38.01
598.5	38.07
598.83	38.3
599.16	38.47
599.489	38.64
599.819	39.03
600.149	39.28
600.479	39.58
600.808	39.8
601.138	39.89
601.467	39.97
601.797	40.07
602.126	40.38
602.456	40.62
602.785	40.74
603.114	40.94
603.443	41.09
603.773	41.34
604.102	41.7
604.431	42.02
604.76	42.27
605.089	42.31
605.418	42.46
605.747	42.77
606.076	43.18
606.405	43.41
606.733	43.89
607.062	44.12
607.391	44.15
607.72	44.51
608.048	44.64
608.377	44.77
608.705	44.99
609.034	45.18
609.362	45.55
609.69	45.87
610.019	46.29
610.347	46.34
610.675	46.42
611.004	46.59
611.332	47
611.66	47.53
611.988	47.76
612.316	47.89
612.644	47.96
612.972	48.17
613.3	48.43
613.627	48.74
613.955	48.9
614.283	49.1
614.611	49.21
614.938	49.19
615.266	49.25
615.593	49.69
615.921	49.86
616.248	50.17
616.576	50.51
616.903	51.03
617.23	51.34
617.558	51.69
617.885	51.95
618.212	52.34
618.539	52.77
618.866	52.99
619.193	53.48
619.52	53.57
619.847	53.44
620.174	53.49
620.501	53.69
620.828	53.82
621.155	54.03
621.481	54.38
621.808	54.63
622.135	55.13
622.461	54.96
622.788	55.23
623.114	55.51
623.441	55.68
623.767	56.06
624.093	56.35
624.42	56.89
624.746	57.03
625.072	56.83
625.398	57.13
625.725	57.33
626.051	57.69
626.377	57.73
626.703	57.59
627.029	57.96
627.354	58.18
627.68	58.23
628.006	58.16
628.332	58.72
628.658	59.28
628.983	59.81
629.309	60.05
629.634	60.38
629.96	60.65
630.285	60.58
630.611	60.84
630.936	61.33
631.262	61.63
631.587	61.99
631.912	61.75
632.237	62.11
632.562	61.53
632.887	61.68
633.213	61.76
633.538	62.53
633.863	62.79
634.187	62.84
634.512	62.93
634.837	63.46
635.162	63.35
635.487	63.04
635.811	63.15
636.136	64.11
636.461	64.2
636.785	63.96
637.11	63.75
637.434	63.28
637.758	63.36
638.083	63.08
638.407	63.18
638.731	63.55
639.056	63.43
639.38	63.06
639.704	63.78
640.028	64.01
640.352	63.29
640.676	63.14
641	63.67
641.324	63.47
641.648	62.41
641.972	62.4
642.295	62.88
642.619	62.69
642.943	62.67
643.266	62.52
643.59	63.4
643.913	63.15
644.237	62.44
644.56	62.37
644.884	63.15
645.207	63.76
645.53	64.24
645.854	64.16
646.177	64.79
646.5	64.52
646.823	65.05
647.146	65.24
647.469	65.17
647.792	65.12
648.115	64.92
648.438	65.52
648.761	66.62
649.084	67.1
649.406	67.27
649.729	67.1
650.052	66.86
650.374	66.94
650.697	67.4
651.019	67.2
651.342	67.55
651.664	67.26
651.987	67.42
652.309	67.72
652.631	67.7
652.953	67.72
653.276	67.44
653.598	67.69
653.92	67.76
654.242	67.99
654.564	68.1
654.886	67.82
655.208	67.61
655.53	67.71
655.851	67.55
656.173	67.62
656.495	67.77
656.816	67.66
657.138	67.41
657.46	67.48
657.781	68.59
658.103	69.64
