Data from T2_Reflection__11__00-23-54-982.txt Node

Date: Fri Jun 04 00:23:54 CEST 2021
User: mabdelazizm
Spectrometer: FLMS18565
Trigger mode: 0
Integration Time (sec): 2.000000E0
Scans to average: 1
Electric dark correction enabled: true
Nonlinearity correction enabled: false
Boxcar width: 12
XAxis mode: Wavelengths
Number of Pixels in Spectrum: 2048
>>>>>Begin Spectral Data<<<<<
179.071	-874.89
179.452	-521.94
179.833	-406.59
180.214	-5050
180.595	-210.6
180.977	-273.4
181.358	-2712.24
181.739	1245.45
182.12	256.4
182.501	202.51
182.882	177.51
183.262	165.09
183.643	119.37
184.024	104.45
184.405	70.61
184.786	56.31
185.166	56.38
185.547	34.75
185.927	33.31
186.308	25.95
186.689	34.52
187.069	26.7
187.449	28.77
187.83	25
188.21	24.66
188.59	31.88
188.971	31.24
189.351	32.22
189.731	33.32
190.111	37.1
190.491	40.76
190.871	38.71
191.251	35.48
191.631	34.73
192.011	31.71
192.391	29.66
192.771	26.92
193.151	25.41
193.531	23.26
193.91	25.27
194.29	24.98
194.67	28.28
195.049	29.99
195.429	25.77
195.808	27.36
196.188	25.31
196.567	24.68
196.946	29.24
197.326	28.85
197.705	30.94
198.084	29.36
198.464	28.17
198.843	29.38
199.222	34.14
199.601	31.24
199.98	32.72
200.359	34.8
200.738	36.8
201.117	37.4
201.496	36.21
201.875	35.92
202.254	37.4
202.632	38.6
203.011	40.81
203.39	37.66
203.768	37.48
204.147	35.6
204.525	32.75
204.904	34
205.282	32.64
205.661	32.18
206.039	32.34
206.418	33.45
206.796	33.57
207.174	31.45
207.552	31.62
207.931	28.06
208.309	28.43
208.687	25.37
209.065	25.74
209.443	24.62
209.821	23.92
210.199	24.52
210.577	22.63
210.954	23.89
211.332	25.04
211.71	23.67
212.088	22.11
212.465	19.78
212.843	21.16
213.221	18.49
213.598	19.13
213.976	21.62
214.353	21.22
214.731	21.25
215.108	20.26
215.485	20.98
215.863	18.57
216.24	18.4
216.617	17.31
216.994	17.01
217.371	18.01
217.749	17.3
218.126	15.62
218.503	14.5
218.88	15.19
219.256	13.95
219.633	12.06
220.01	13.61
220.387	13.55
220.764	12.63
221.14	12.49
221.517	13.4
221.894	13.59
222.27	13.13
222.647	13.41
223.023	12.01
223.4	11.58
223.776	9.91
224.153	10
224.529	9.61
224.905	8.25
225.282	8.36
225.658	8.22
226.034	7.9
226.41	7.39
226.786	7.07
227.162	7
227.538	7.35
227.914	6.74
228.29	5.94
228.666	5.33
229.042	5.3
229.418	5.05
229.793	4.95
230.169	4.73
230.545	4.66
230.92	4.21
231.296	4.25
231.672	4.2
232.047	4.02
232.422	4.08
232.798	3.64
233.173	3.84
233.549	3.76
233.924	3.83
234.299	4.05
234.674	4.06
235.05	4.01
235.425	3.93
235.8	3.74
236.175	3.61
236.55	3.33
236.925	3.24
237.3	3.22
237.675	3.17
238.049	3.35
238.424	3.32
238.799	3.12
239.174	2.98
239.548	3.03
239.923	2.81
240.297	2.86
240.672	2.75
241.046	2.76
241.421	2.81
241.795	2.8
242.17	2.85
242.544	2.65
242.918	2.68
243.293	2.54
243.667	2.49
244.041	2.46
244.415	2.43
244.789	2.5
245.163	2.49
245.537	2.54
245.911	2.62
246.285	2.55
246.659	2.56
247.033	2.53
247.406	2.54
247.78	2.56
248.154	2.61
248.528	2.71
248.901	2.75
249.275	2.88
249.648	2.9
250.022	2.88
250.395	2.85
250.769	2.79
251.142	2.76
251.515	2.73
251.888	2.86
252.262	2.83
252.635	2.91
253.008	2.96
253.381	2.86
253.754	2.7
254.127	2.7
254.5	2.74
254.873	2.65
255.246	2.64
255.619	2.73
255.992	2.84
256.364	2.9
256.737	2.89
257.11	2.85
257.483	2.74
257.855	2.7
258.228	2.6
258.6	2.57
258.973	2.48
259.345	2.45
259.718	2.4
260.09	2.34
260.462	2.31
260.834	2.35
261.207	2.22
261.579	2.25
261.951	2.23
262.323	2.16
262.695	2.14
263.067	2.28
263.439	2.21
263.811	2.2
264.183	2.19
264.555	2.2
264.927	2.17
265.298	2.14
265.67	2.07
266.042	2.05
266.413	1.96
266.785	2.05
267.156	2.07
267.528	2.05
267.899	2
268.271	1.96
268.642	2
269.013	2.01
269.385	2.06
269.756	2.04
270.127	2.02
270.498	2.11
270.87	2.03
271.241	1.96
271.612	1.94
271.983	1.93
272.354	1.84
272.724	1.78
273.095	1.8
273.466	1.78
273.837	1.73
274.208	1.78
274.578	1.68
274.949	1.6
275.32	1.58
275.69	1.62
276.061	1.59
276.431	1.54
276.802	1.63
277.172	1.63
277.542	1.66
277.913	1.65
278.283	1.69
278.653	1.69
279.023	1.74
279.394	1.73
279.764	1.71
280.134	1.74
280.504	1.79
280.874	1.79
281.244	1.8
281.614	1.84
281.983	1.88
282.353	1.79
282.723	1.8
283.093	1.79
283.462	1.76
283.832	1.79
284.202	1.92
284.571	1.85
284.941	1.89
285.31	1.95
285.68	1.95
286.049	1.89
286.418	1.89
286.788	1.9
287.157	1.89
287.526	1.82
287.895	1.81
288.264	1.78
288.633	1.75
289.002	1.75
289.371	1.7
289.74	1.65
290.109	1.73
290.478	1.74
290.847	1.73
291.216	1.72
291.585	1.71
291.953	1.73
292.322	1.78
292.691	1.73
293.059	1.72
293.428	1.65
293.796	1.64
294.165	1.64
294.533	1.54
294.901	1.51
295.27	1.5
295.638	1.53
296.006	1.52
296.374	1.49
296.743	1.47
297.111	1.52
297.479	1.47
297.847	1.43
298.215	1.4
298.583	1.33
298.95	1.36
299.318	1.31
299.686	1.25
300.054	1.2
300.422	1.18
300.789	1.23
301.157	1.22
301.525	1.16
301.892	1.14
302.26	1.16
302.627	1.16
302.994	1.2
303.362	1.19
303.729	1.25
304.097	1.2
304.464	1.17
304.831	1.11
305.198	1.13
305.565	1.07
305.932	1.06
306.299	1
306.666	1.08
307.033	1.06
307.4	1.03
307.767	1.02
308.134	1.02
308.501	0.97
308.867	0.9
309.234	0.98
309.601	0.99
309.967	0.92
310.334	0.88
310.701	0.9
311.067	0.96
311.433	0.98
311.8	1.02
312.166	0.95
312.533	0.89
312.899	0.85
313.265	0.89
313.631	0.88
313.997	0.84
314.363	0.8
314.729	0.84
315.096	0.89
315.461	0.88
315.827	0.79
316.193	0.83
316.559	0.8
316.925	0.87
317.291	0.84
317.656	0.88
318.022	0.98
318.388	0.83
318.753	0.83
319.119	0.91
319.484	0.96
319.85	0.92
320.215	0.92
320.581	0.9
320.946	0.9
321.311	0.92
321.676	0.93
322.042	0.89
322.407	0.8
322.772	0.74
323.137	0.78
323.502	0.78
323.867	0.81
324.232	0.73
324.597	0.73
324.962	0.79
325.327	0.78
325.691	0.92
326.056	0.85
326.421	0.82
326.785	0.8
327.15	0.82
327.514	0.92
327.879	0.96
328.243	0.96
328.608	0.95
328.972	1.04
329.337	0.94
329.701	0.86
330.065	0.82
330.429	0.81
330.794	0.78
331.158	0.9
331.522	1.01
331.886	1.07
332.25	1.07
332.614	1.07
332.978	0.99
333.342	1.09
333.705	1.11
334.069	1.09
334.433	1.06
334.797	0.94
335.16	0.96
335.524	0.99
335.887	0.99
336.251	0.96
336.614	0.97
336.978	0.9
337.341	0.82
337.705	0.78
338.068	0.8
338.431	0.82
338.794	0.8
339.158	0.78
339.521	0.76
339.884	0.79
340.247	0.66
340.61	0.64
340.973	0.63
341.336	0.62
341.699	0.61
342.062	0.61
342.424	0.48
342.787	0.48
343.15	0.42
343.512	0.44
343.875	0.57
344.238	0.57
344.6	0.61
344.963	0.61
345.325	0.58
345.688	0.52
346.05	0.54
346.412	0.61
346.775	0.66
347.137	0.53
347.499	0.6
347.861	0.64
348.223	0.72
348.585	0.82
348.947	0.76
349.309	0.8
349.671	0.77
350.033	0.86
350.395	0.85
350.757	0.92
351.118	0.92
351.48	1.01
351.842	1
352.203	1.04
352.565	0.97
352.927	0.91
353.288	0.94
353.65	0.82
354.011	0.78
354.372	0.8
354.734	0.87
355.095	0.89
355.456	0.94
355.817	0.93
356.179	0.97
356.54	0.92
356.901	0.91
357.262	0.92
357.623	0.86
357.984	0.85
358.345	0.95
358.705	1
359.066	0.9
359.427	0.93
359.788	0.89
360.148	0.93
360.509	0.83
360.87	0.75
361.23	0.79
361.591	0.84
361.951	0.87
362.312	0.87
362.672	0.9
363.032	0.94
363.393	0.84
363.753	0.84
364.113	0.85
364.473	0.83
364.833	0.74
365.193	0.71
365.553	0.74
365.913	0.74
366.273	0.75
366.633	0.66
366.993	0.75
367.353	0.7
367.713	0.69
368.072	0.73
368.432	0.65
368.792	0.68
369.151	0.67
369.511	0.74
369.87	0.81
370.23	0.82
370.589	0.89
370.949	0.85
371.308	0.83
371.667	0.91
372.027	0.91
372.386	1.03
372.745	1.06
373.104	1.07
373.463	0.96
373.822	1.02
374.181	1.1
374.54	1.05
374.899	1.07
375.258	1
375.617	1.15
375.975	1.21
376.334	1.21
376.693	1.23
377.052	1.22
377.41	1.3
377.769	1.28
378.127	1.28
378.486	1.23
378.844	1.27
379.202	1.24
379.561	1.13
379.919	1.08
380.277	1.06
380.636	1.04
380.994	1.02
381.352	0.95
381.71	0.93
382.068	0.94
382.426	0.92
382.784	0.97
383.142	0.94
383.5	0.96
383.857	1.02
384.215	1.07
384.573	1.12
384.931	1.04
385.288	1.04
385.646	1.09
386.003	1.16
386.361	1.18
386.718	1.18
387.076	1.22
387.433	1.19
387.791	1.17
388.148	1.19
388.505	1.33
388.862	1.48
389.22	1.59
389.577	1.66
389.934	1.76
390.291	1.87
390.648	1.95
391.005	2.11
391.362	2.33
391.718	2.4
392.075	2.5
392.432	2.68
392.789	2.73
393.145	2.86
393.502	2.99
393.859	3.08
394.215	3.2
394.572	3.3
394.928	3.44
395.285	3.58
395.641	3.81
395.997	4.09
396.354	4.41
396.71	4.74
397.066	4.93
397.422	5.17
397.778	5.41
398.134	5.61
398.491	5.91
398.846	6.1
399.202	6.58
399.558	6.89
399.914	7.08
400.27	7.37
400.626	7.66
400.981	7.99
401.337	8.32
401.693	8.67
402.048	9
402.404	9.31
402.759	9.79
403.115	10.18
403.47	10.62
403.826	11.18
404.181	11.67
404.536	12.12
404.892	12.49
405.247	12.97
405.602	13.41
405.957	13.96
406.312	14.42
406.667	14.89
407.022	15.34
407.377	15.86
407.732	16.52
408.087	16.8
408.442	17.25
408.796	17.75
409.151	18.23
409.506	18.72
409.86	19.19
410.215	19.67
410.57	20.26
410.924	20.72
411.279	21.22
411.633	21.71
411.987	22.23
412.342	22.66
412.696	23.04
413.05	23.42
413.404	23.93
413.758	24.49
414.113	25.07
414.467	25.42
414.821	25.83
415.175	26.35
415.529	26.82
415.882	27.27
416.236	27.61
416.59	28.02
416.944	28.56
417.298	29.07
417.651	29.38
418.005	29.84
418.358	30.29
418.712	30.79
419.065	31.22
419.419	31.48
419.772	31.85
420.126	32.17
420.479	32.46
420.832	32.84
421.185	33.19
421.539	33.41
421.892	33.83
422.245	34.01
422.598	34.26
422.951	34.48
423.304	34.63
423.657	34.86
424.01	35.16
424.363	35.25
424.715	35.54
425.068	35.84
425.421	36.04
425.773	36.22
426.126	36.4
426.479	36.82
426.831	37.07
427.184	37.32
427.536	37.4
427.889	37.67
428.241	37.9
428.593	38.1
428.945	38.27
429.298	38.59
429.65	38.69
430.002	38.94
430.354	39.15
430.706	39.34
431.058	39.47
431.41	39.61
431.762	39.73
432.114	39.95
432.466	40.27
432.817	40.48
433.169	40.72
433.521	40.88
433.872	41.04
434.224	41.15
434.576	41.27
434.927	41.44
435.279	41.53
435.63	41.65
435.981	41.78
436.333	41.89
436.684	41.9
437.035	41.88
437.387	41.92
437.738	41.94
438.089	41.99
438.44	42.13
438.791	42.09
439.142	42.22
439.493	42.26
439.844	42.39
440.195	42.34
440.545	42.51
440.896	42.77
441.247	42.69
441.598	42.55
441.948	42.63
442.299	42.67
442.649	42.67
443	42.66
443.35	42.79
443.701	42.75
444.051	42.8
444.401	42.69
444.752	42.62
445.102	42.75
445.452	42.67
445.802	42.78
446.152	43.01
446.502	43.13
446.852	43.06
447.202	42.96
447.552	43.01
447.902	43.09
448.252	43.07
448.602	43.24
448.952	43.33
449.301	43.32
449.651	43.27
450.001	43.37
450.35	43.55
450.7	43.57
451.049	43.68
451.399	43.74
451.748	43.89
452.097	43.82
452.447	43.83
452.796	43.82
453.145	43.97
453.494	44.06
453.843	43.92
454.193	44.12
454.542	44.21
454.891	43.95
455.239	43.83
455.588	43.77
455.937	43.81
456.286	43.8
456.635	43.71
456.984	43.74
457.332	43.49
457.681	43.45
458.03	43.2
458.378	43.09
458.727	43.12
459.075	42.78
459.423	42.89
459.772	42.59
460.12	42.47
460.468	42.22
460.817	41.99
461.165	41.79
461.513	41.67
461.861	41.57
462.209	41.36
462.557	41.31
462.905	41.02
463.253	40.88
463.601	40.89
463.949	40.92
464.297	40.79
464.644	40.62
464.992	40.48
465.34	40.5
465.687	40.36
466.035	40.17
466.383	40.08
466.73	40.08
467.078	39.8
467.425	39.46
467.772	39.45
468.12	39.15
468.467	39.12
468.814	39.11
469.161	39.07
469.508	39.1
469.856	39.04
470.203	38.89
470.55	38.85
470.897	38.65
471.243	38.6
471.59	38.43
471.937	38.27
472.284	38.06
472.631	37.84
472.977	37.71
473.324	37.67
473.671	37.56
474.017	37.18
474.364	37.02
474.71	36.91
475.057	36.63
475.403	36.45
475.749	36.42
476.096	36.26
476.442	36.16
476.788	35.98
477.134	35.76
477.48	35.54
477.826	35.42
478.172	35.13
478.518	34.98
478.864	34.79
479.21	34.53
479.556	34.24
479.902	33.95
480.248	33.77
480.593	33.64
480.939	33.51
481.285	33.35
481.63	33.23
481.976	33
482.321	32.87
482.667	32.7
483.012	32.6
483.357	32.52
483.703	32.46
484.048	32.27
484.393	32.05
484.738	31.98
485.084	31.85
485.429	31.74
485.774	31.78
486.119	31.62
486.464	31.35
486.808	31.2
487.153	30.95
487.498	30.74
487.843	30.5
488.188	30.47
488.532	30.41
488.877	30.27
489.222	30.13
489.566	29.93
489.911	29.81
490.255	29.62
490.6	29.49
490.944	29.21
491.288	29.04
491.633	28.84
491.977	28.5
492.321	28.34
492.665	28.05
493.009	27.87
493.353	27.63
493.697	27.4
494.041	27.25
494.385	26.93
494.729	26.73
495.073	26.62
495.417	26.56
495.76	26.44
496.104	26.3
496.448	26.14
496.791	25.98
497.135	25.76
497.479	25.63
497.822	25.37
498.165	25.16
498.509	24.99
498.852	24.77
499.196	24.59
499.539	24.49
499.882	24.37
500.225	24.1
500.568	24.01
500.911	23.86
501.254	23.87
501.597	23.83
501.94	23.75
502.283	23.66
502.626	23.51
502.969	23.4
503.312	23.27
503.654	23.17
503.997	22.95
504.34	22.87
504.682	22.68
505.025	22.66
505.367	22.5
505.71	22.25
506.052	22.05
506.395	21.96
506.737	21.91
507.079	21.78
507.421	21.64
507.764	21.51
508.106	21.35
508.448	21.22
508.79	21.2
509.132	21.09
509.474	20.87
509.816	20.7
510.158	20.52
510.499	20.4
510.841	20.21
511.183	19.97
511.525	19.8
511.866	19.7
512.208	19.48
512.549	19.44
512.891	19.29
513.232	19.23
513.574	19.07
513.915	19.04
514.256	19.03
514.598	18.97
514.939	18.81
515.28	18.66
515.621	18.48
515.962	18.47
516.303	18.51
516.644	18.47
516.985	18.33
517.326	18.2
517.667	18.1
518.008	18.09
518.349	18.06
518.69	17.99
519.03	17.79
519.371	17.73
519.712	17.69
520.052	17.7
520.393	17.62
520.733	17.64
521.074	17.5
521.414	17.39
521.754	17.31
522.095	17.01
522.435	16.75
522.775	16.65
523.115	16.59
523.455	16.48
523.795	16.46
524.135	16.49
524.475	16.36
524.815	16.15
525.155	16.09
525.495	16.06
525.835	15.98
526.175	16.04
526.514	15.9
526.854	15.79
527.194	15.68
527.533	15.64
527.873	15.58
528.212	15.53
528.552	15.4
528.891	15.22
529.23	15.14
529.57	15.11
529.909	15.11
530.248	15.05
530.587	15.08
530.927	15.13
531.266	15.03
531.605	14.83
531.944	14.82
532.283	14.63
532.621	14.55
532.96	14.48
533.299	14.42
533.638	14.23
533.977	14.14
534.315	14.04
534.654	13.77
534.992	13.82
535.331	13.69
535.67	13.61
536.008	13.57
536.346	13.35
536.685	13.27
537.023	13.21
537.361	13.16
537.7	13.1
538.038	12.99
538.376	12.92
538.714	12.87
539.052	12.78
539.39	12.65
539.728	12.7
540.066	12.68
540.404	12.68
540.741	12.6
541.079	12.47
541.417	12.41
541.755	12.31
542.092	12.31
542.43	12.3
542.767	12.24
543.105	12.36
543.442	12.14
543.78	12.2
544.117	12.13
544.454	12.09
544.792	12.24
545.129	12.31
545.466	12.22
545.803	12.29
546.14	12.28
546.477	12.16
546.814	12.2
547.151	12.22
547.488	12.31
547.825	12.29
548.162	12.28
548.499	12.32
548.835	12.2
549.172	12.14
549.509	11.96
549.845	11.93
550.182	11.93
550.518	11.95
550.855	11.87
551.191	12.04
551.528	11.99
551.864	12.14
552.2	12.08
552.537	12.17
552.873	12.06
553.209	11.86
553.545	11.72
553.881	11.86
554.217	11.87
554.553	11.78
554.889	11.79
555.225	11.67
555.561	11.69
555.896	11.57
556.232	11.61
556.568	11.59
556.903	11.6
557.239	11.71
557.575	11.87
557.91	11.99
558.245	12.14
558.581	12.17
558.916	12.07
559.252	12.08
559.587	12
559.922	12.14
560.257	11.92
560.592	11.96
560.928	11.89
561.263	11.89
561.598	12.03
561.933	12.05
562.267	12.12
562.602	12.17
562.937	12.23
563.272	12.31
563.607	12.28
563.941	12.26
564.276	12.36
564.611	12.32
564.945	12.26
565.28	12.18
565.614	12.21
565.949	12.28
566.283	12.38
566.617	12.28
566.951	12.29
567.286	12.47
567.62	12.48
567.954	12.53
568.288	12.54
568.622	12.7
568.956	12.68
569.29	12.7
569.624	12.81
569.958	12.87
570.292	12.89
570.626	12.8
570.959	12.74
571.293	12.74
571.627	12.9
571.96	12.98
572.294	12.99
572.627	13.06
572.961	13.13
573.294	13.16
573.627	13.28
573.961	13.27
574.294	13.21
574.627	13.2
574.961	13.27
575.294	13.33
575.627	13.17
575.96	13.24
576.293	13.2
576.626	13.18
576.959	13.25
577.292	13.36
577.624	13.48
577.957	13.47
578.29	13.42
578.623	13.45
578.955	13.52
579.288	13.61
579.62	13.72
579.953	13.73
580.285	13.79
580.618	13.92
580.95	13.83
581.282	13.86
581.615	13.84
581.947	13.82
582.279	13.93
582.611	14.02
582.943	14.03
583.275	14.03
583.607	14.04
583.939	14.26
584.271	14.33
584.603	14.41
584.935	14.37
585.267	14.46
585.598	14.44
585.93	14.39
586.262	14.52
586.593	14.68
586.925	14.74
587.256	14.86
587.588	14.85
587.919	14.9
588.25	14.88
588.582	14.85
588.913	14.79
589.244	15
589.575	15.1
589.907	15.2
590.238	15.27
590.569	15.28
590.9	15.34
591.231	15.47
591.562	15.64
591.892	15.69
592.223	15.77
592.554	15.76
592.885	15.87
593.215	16.1
593.546	16.09
593.877	16.08
594.207	16.14
594.538	16.25
594.868	16.47
595.198	16.57
595.529	16.55
595.859	16.63
596.189	16.74
596.52	16.95
596.85	17.12
597.18	17.2
597.51	17.27
597.84	17.33
598.17	17.52
598.5	17.76
598.83	17.98
599.16	18.17
599.489	18.31
599.819	18.44
600.149	18.83
600.479	19.13
600.808	19.41
601.138	19.67
601.467	19.87
601.797	20.15
602.126	20.51
602.456	20.91
602.785	21.08
603.114	21.14
603.443	21.35
603.773	21.74
604.102	22.03
604.431	22.27
604.76	22.44
605.089	22.66
605.418	22.91
605.747	23.19
606.076	23.44
606.405	23.65
606.733	23.78
607.062	23.9
607.391	24.1
607.72	24.49
608.048	24.75
608.377	24.88
608.705	25.23
609.034	25.56
609.362	25.83
609.69	26.21
610.019	26.53
610.347	26.77
610.675	26.92
611.004	27.26
611.332	27.66
611.66	28.18
611.988	28.32
612.316	28.62
612.644	28.69
612.972	28.84
613.3	29.21
613.627	29.45
613.955	29.92
614.283	30.25
614.611	30.58
614.938	30.77
615.266	31.25
615.593	31.62
615.921	31.98
616.248	32.33
616.576	32.77
616.903	33.07
617.23	33.35
617.558	33.81
617.885	34.13
618.212	34.55
618.539	35.04
618.866	35.5
619.193	35.62
619.52	35.64
619.847	35.73
620.174	36.26
620.501	36.5
620.828	37.04
621.155	37.75
621.481	37.95
621.808	38.21
622.135	38.37
622.461	38.75
622.788	38.93
623.114	39.58
623.441	39.67
623.767	40.11
624.093	40.44
624.42	40.89
624.746	41.4
625.072	41.6
625.398	42.26
625.725	42.54
626.051	42.71
626.377	42.95
626.703	43.01
627.029	43.13
627.354	43.99
627.68	44.66
628.006	44.93
628.332	44.77
628.658	45.14
628.983	45.31
629.309	45.24
629.634	45.6
629.96	46.06
630.285	46.73
630.611	46.81
630.936	47.62
631.262	47.51
631.587	48.15
631.912	48.4
632.237	48.58
632.562	49.44
632.887	48.85
633.213	49.23
633.538	49.75
633.863	50.26
634.187	50.6
634.512	50.97
634.837	51.37
635.162	51.65
635.487	51.12
635.811	50.72
636.136	51.36
636.461	51.93
636.785	52.47
637.11	52.81
637.434	52.88
637.758	53.42
638.083	53.72
638.407	53.57
638.731	53.96
639.056	53.99
639.38	53.84
639.704	54.27
640.028	54.5
640.352	54.31
640.676	53.28
641	54.41
641.324	54.67
641.648	54.67
641.972	54.39
642.295	55.38
642.619	54.95
642.943	54.7
643.266	55.18
643.59	56.09
643.913	56.54
644.237	56.4
644.56	56.32
644.884	56.23
645.207	56.96
645.53	57.15
645.854	56.77
646.177	57.55
646.5	57.83
646.823	58.61
647.146	58.4
647.469	59.25
647.792	59.45
648.115	59.49
648.438	60.67
648.761	61.26
649.084	61.37
649.406	61.15
649.729	60.77
650.052	61.11
650.374	61.18
650.697	61.5
651.019	61.51
651.342	61.69
651.664	61.64
651.987	61.64
652.309	61.94
652.631	62.22
652.953	62.38
653.276	62.29
653.598	62.55
653.92	62.51
654.242	62.63
654.564	62.82
654.886	62.59
655.208	62.76
655.53	62.6
655.851	62.66
656.173	62.77
656.495	62.91
656.816	63.3
657.138	63.7
657.46	64.66
657.781	67.02
