Data from T2__Reflection__43__00-30-43-796.txt Node

Date: Sat Jun 05 00:30:43 CEST 2021
User: mabdelazizm
Spectrometer: FLMS18565
Trigger mode: 0
Integration Time (sec): 2.000000E0
Scans to average: 1
Electric dark correction enabled: true
Nonlinearity correction enabled: false
Boxcar width: 12
XAxis mode: Wavelengths
Number of Pixels in Spectrum: 2048
>>>>>Begin Spectral Data<<<<<
179.071	52.5
179.452	28.18
179.833	19.31
180.214	48.1
180.595	92.78
180.977	313.24
181.358	144.91
181.739	217.86
182.12	146.38
182.501	176.05
182.882	194.59
183.262	301.32
183.643	-503.08
184.024	-17.06
184.405	36.28
184.786	36.51
185.166	62.96
185.547	53.83
185.927	47.02
186.308	47.08
186.689	51.34
187.069	48.57
187.449	42.78
187.83	39.15
188.21	29.93
188.59	26.99
188.971	24.86
189.351	20.02
189.731	22.44
190.111	25.33
190.491	29.86
190.871	28.03
191.251	35.51
191.631	41.42
192.011	41.39
192.391	39.59
192.771	43.27
193.151	44.83
193.531	39.71
193.91	36.11
194.29	39.15
194.67	32.59
195.049	31.12
195.429	32.79
195.808	29.87
196.188	28.13
196.567	26.72
196.946	25.4
197.326	25.1
197.705	23.27
198.084	23.45
198.464	21.54
198.843	24.12
199.222	23.71
199.601	21.67
199.98	19.19
200.359	20.92
200.738	21.73
201.117	15.61
201.496	14
201.875	11.09
202.254	8.2
202.632	5.29
203.011	5.98
203.39	5.73
203.768	5.91
204.147	9.24
204.525	5.67
204.904	5.58
205.282	6.43
205.661	5.33
206.039	5.08
206.418	5.21
206.796	6.4
207.174	5.88
207.552	3.02
207.931	4.13
208.309	3.13
208.687	1.59
209.065	2.54
209.443	-0.33
209.821	-2.87
210.199	-7.74
210.577	-5.06
210.954	-1.05
211.332	-0.21
211.71	-0.86
212.088	-0.04
212.465	-0.85
212.843	-1.51
213.221	-0.25
213.598	-1.32
213.976	0.06
214.353	-1.13
214.731	0.77
215.108	1.21
215.485	0.1
215.863	-1.88
216.24	-3.03
216.617	-1.87
216.994	-1.34
217.371	-2.63
217.749	-2.66
218.126	-0.73
218.503	-1.83
218.88	0.01
219.256	0.98
219.633	2.95
220.01	2.27
220.387	2
220.764	1.81
221.14	2.3
221.517	1.67
221.894	1.05
222.27	1.57
222.647	0.31
223.023	0.67
223.4	1.36
223.776	1.3
224.153	-0.46
224.529	0.36
224.905	1.69
225.282	2.39
225.658	1.69
226.034	1.67
226.41	2.12
226.786	2.17
227.162	2.14
227.538	2.35
227.914	2.01
228.29	1.65
228.666	1.28
229.042	1
229.418	0.93
229.793	0.66
230.169	0.99
230.545	0.89
230.92	0.95
231.296	1.03
231.672	1.14
232.047	1.08
232.422	0.78
232.798	0.61
233.173	0.66
233.549	1
233.924	0.79
234.299	0.54
234.674	0.68
235.05	0.95
235.425	0.96
235.8	0.7
236.175	0.68
236.55	0.63
236.925	0.5
237.3	0.61
237.675	0.62
238.049	0.75
238.424	0.78
238.799	0.77
239.174	0.84
239.548	0.77
239.923	0.72
240.297	0.61
240.672	0.68
241.046	0.53
241.421	0.51
241.795	0.53
242.17	0.52
242.544	0.46
242.918	0.32
243.293	0.29
243.667	0.25
244.041	0.19
244.415	0.13
244.789	0.04
245.163	0.08
245.537	0.13
245.911	0.11
246.285	0.04
246.659	0.05
247.033	0.15
247.406	0.1
247.78	0.04
248.154	0.07
248.528	0.01
248.901	0.05
249.275	0.07
249.648	0.1
250.022	-0
250.395	0.1
250.769	0.1
251.142	0.15
251.515	0.17
251.888	0.2
252.262	0.26
252.635	0.25
253.008	0.22
253.381	0.21
253.754	0.23
254.127	0.27
254.5	0.25
254.873	0.18
255.246	0.19
255.619	0.26
255.992	0.22
256.364	0.18
256.737	0.2
257.11	0.28
257.483	0.24
257.855	0.2
258.228	0.14
258.6	0.15
258.973	0.22
259.345	0.28
259.718	0.2
260.09	0.21
260.462	0.12
260.834	0.12
261.207	0.09
261.579	0.06
261.951	0.07
262.323	0.07
262.695	0.1
263.067	0.09
263.439	0.11
263.811	0.18
264.183	0.22
264.555	0.21
264.927	0.21
265.298	0.23
265.67	0.18
266.042	0.18
266.413	0.15
266.785	0.12
267.156	0.17
267.528	0.21
267.899	0.17
268.271	0.13
268.642	0.11
269.013	0.12
269.385	0.1
269.756	0.06
270.127	0.09
270.498	0.08
270.87	0.06
271.241	0.11
271.612	0.12
271.983	0.1
272.354	0.14
272.724	0.11
273.095	0.07
273.466	0.06
273.837	0.09
274.208	0.09
274.578	0.06
274.949	0.07
275.32	0.05
275.69	0.04
276.061	0.1
276.431	0.09
276.802	0.06
277.172	0.07
277.542	0.07
277.913	0.11
278.283	0.12
278.653	0.17
279.023	0.21
279.394	0.21
279.764	0.23
280.134	0.23
280.504	0.25
280.874	0.24
281.244	0.23
281.614	0.2
281.983	0.21
282.353	0.2
282.723	0.21
283.093	0.2
283.462	0.18
283.832	0.14
284.202	0.15
284.571	0.11
284.941	0.09
285.31	0.07
285.68	0.07
286.049	0.04
286.418	0.05
286.788	0.08
287.157	-0
287.526	-0.03
287.895	-0.06
288.264	-0.03
288.633	0.03
289.002	0.03
289.371	0.07
289.74	0.02
290.109	0.02
290.478	-0
290.847	-0.03
291.216	-0.08
291.585	-0.05
291.953	-0.09
292.322	-0.11
292.691	-0.1
293.059	-0.07
293.428	-0.04
293.796	-0.03
294.165	-0.05
294.533	-0.07
294.901	-0.09
295.27	-0.1
295.638	-0.13
296.006	-0.2
296.374	-0.18
296.743	-0.17
297.111	-0.21
297.479	-0.24
297.847	-0.34
298.215	-0.32
298.583	-0.37
298.95	-0.37
299.318	-0.35
299.686	-0.31
300.054	-0.29
300.422	-0.28
300.789	-0.28
301.157	-0.31
301.525	-0.34
301.892	-0.37
302.26	-0.38
302.627	-0.42
302.994	-0.41
303.362	-0.37
303.729	-0.37
304.097	-0.34
304.464	-0.3
304.831	-0.29
305.198	-0.29
305.565	-0.26
305.932	-0.26
306.299	-0.26
306.666	-0.19
307.033	-0.19
307.4	-0.19
307.767	-0.16
308.134	-0.16
308.501	-0.23
308.867	-0.23
309.234	-0.24
309.601	-0.2
309.967	-0.25
310.334	-0.22
310.701	-0.19
311.067	-0.2
311.433	-0.14
311.8	-0.14
312.166	-0.16
312.533	-0.17
312.899	-0.16
313.265	-0.18
313.631	-0.19
313.997	-0.18
314.363	-0.17
314.729	-0.22
315.096	-0.26
315.461	-0.22
315.827	-0.29
316.193	-0.25
316.559	-0.25
316.925	-0.21
317.291	-0.19
317.656	-0.15
318.022	-0.18
318.388	-0.16
318.753	-0.24
319.119	-0.19
319.484	-0.21
319.85	-0.21
320.215	-0.23
320.581	-0.23
320.946	-0.21
321.311	-0.15
321.676	-0.19
322.042	-0.17
322.407	-0.17
322.772	-0.1
323.137	-0.14
323.502	-0.11
323.867	-0.07
324.232	-0.06
324.597	-0.1
324.962	-0.06
325.327	-0.09
325.691	-0.07
326.056	-0.09
326.421	-0.09
326.785	-0.1
327.15	-0.09
327.514	-0.08
327.879	-0.07
328.243	-0.14
328.608	-0.08
328.972	-0.08
329.337	-0.09
329.701	-0.04
330.065	-0.09
330.429	-0.16
330.794	-0.18
331.158	-0.21
331.522	-0.22
331.886	-0.24
332.25	-0.24
332.614	-0.28
332.978	-0.34
333.342	-0.31
333.705	-0.35
334.069	-0.44
334.433	-0.41
334.797	-0.41
335.16	-0.41
335.524	-0.48
335.887	-0.47
336.251	-0.48
336.614	-0.52
336.978	-0.52
337.341	-0.48
337.705	-0.56
338.068	-0.54
338.431	-0.46
338.794	-0.54
339.158	-0.51
339.521	-0.48
339.884	-0.44
340.247	-0.46
340.61	-0.46
340.973	-0.54
341.336	-0.53
341.699	-0.54
342.062	-0.46
342.424	-0.44
342.787	-0.46
343.15	-0.43
343.512	-0.48
343.875	-0.5
344.238	-0.54
344.6	-0.47
344.963	-0.46
345.325	-0.47
345.688	-0.43
346.05	-0.4
346.412	-0.4
346.775	-0.32
347.137	-0.36
347.499	-0.37
347.861	-0.37
348.223	-0.46
348.585	-0.45
348.947	-0.43
349.309	-0.42
349.671	-0.42
350.033	-0.35
350.395	-0.34
350.757	-0.33
351.118	-0.37
351.48	-0.38
351.842	-0.35
352.203	-0.3
352.565	-0.28
352.927	-0.27
353.288	-0.22
353.65	-0.27
354.011	-0.28
354.372	-0.23
354.734	-0.27
355.095	-0.28
355.456	-0.35
355.817	-0.42
356.179	-0.41
356.54	-0.45
356.901	-0.45
357.262	-0.35
357.623	-0.37
357.984	-0.4
358.345	-0.41
358.705	-0.39
359.066	-0.43
359.427	-0.4
359.788	-0.37
360.148	-0.31
360.509	-0.25
360.87	-0.21
361.23	-0.18
361.591	-0.16
361.951	-0.22
362.312	-0.29
362.672	-0.21
363.032	-0.17
363.393	-0.19
363.753	-0.15
364.113	-0.18
364.473	-0.12
364.833	-0.05
365.193	-0.1
365.553	-0.03
365.913	-0.12
366.273	-0.08
366.633	-0.06
366.993	-0.05
367.353	-0.08
367.713	-0.02
368.072	0.01
368.432	0.06
368.792	0.01
369.151	-0.04
369.511	-0.11
369.87	-0.11
370.23	-0.12
370.589	-0.11
370.949	-0.12
371.308	-0.07
371.667	-0.13
372.027	-0.11
372.386	-0.16
372.745	-0.17
373.104	-0.11
373.463	-0.11
373.822	-0.15
374.181	-0.08
374.54	-0.15
374.899	-0.09
375.258	-0.12
375.617	-0.09
375.975	-0.15
376.334	-0.14
376.693	-0.2
377.052	-0.23
377.41	-0.28
377.769	-0.29
378.127	-0.26
378.486	-0.25
378.844	-0.27
379.202	-0.32
379.561	-0.39
379.919	-0.35
380.277	-0.41
380.636	-0.41
380.994	-0.46
381.352	-0.42
381.71	-0.4
382.068	-0.38
382.426	-0.37
382.784	-0.37
383.142	-0.37
383.5	-0.39
383.857	-0.38
384.215	-0.43
384.573	-0.49
384.931	-0.46
385.288	-0.47
385.646	-0.52
386.003	-0.5
386.361	-0.5
386.718	-0.42
387.076	-0.39
387.433	-0.37
387.791	-0.36
388.148	-0.3
388.505	-0.3
388.862	-0.27
389.22	-0.19
389.577	-0.23
389.934	-0.21
390.291	-0.27
390.648	-0.29
391.005	-0.27
391.362	-0.22
391.718	-0.17
392.075	-0.18
392.432	-0.11
392.789	-0.06
393.145	-0.05
393.502	0.07
393.859	0.03
394.215	0.11
394.572	0.21
394.928	0.23
395.285	0.18
395.641	0.15
395.997	0.17
396.354	0.12
396.71	0.17
397.066	0.19
397.422	0.26
397.778	0.21
398.134	0.21
398.491	0.22
398.846	0.21
399.202	0.25
399.558	0.32
399.914	0.29
400.27	0.3
400.626	0.29
400.981	0.26
401.337	0.33
401.693	0.28
402.048	0.34
402.404	0.27
402.759	0.41
403.115	0.43
403.47	0.5
403.826	0.53
404.181	0.56
404.536	0.59
404.892	0.59
405.247	0.69
405.602	0.64
405.957	0.67
406.312	0.69
406.667	0.75
407.022	0.79
407.377	0.82
407.732	0.86
408.087	0.95
408.442	0.95
408.796	0.94
409.151	1.01
409.506	1.02
409.86	1.07
410.215	1.1
410.57	1.15
410.924	1.13
411.279	1.1
411.633	1.15
411.987	1.15
412.342	1.12
412.696	1.09
413.05	1.13
413.404	1.17
413.758	1.26
414.113	1.24
414.467	1.29
414.821	1.3
415.175	1.27
415.529	1.26
415.882	1.26
416.236	1.33
416.59	1.31
416.944	1.34
417.298	1.36
417.651	1.38
418.005	1.36
418.358	1.44
418.712	1.45
419.065	1.46
419.419	1.53
419.772	1.61
420.126	1.69
420.479	1.73
420.832	1.79
421.185	1.79
421.539	1.86
421.892	1.91
422.245	1.93
422.598	1.94
422.951	1.93
423.304	1.91
423.657	2
424.01	2.02
424.363	2.06
424.715	2.14
425.068	2.18
425.421	2.25
425.773	2.25
426.126	2.31
426.479	2.34
426.831	2.3
427.184	2.28
427.536	2.37
427.889	2.35
428.241	2.36
428.593	2.31
428.945	2.32
429.298	2.23
429.65	2.13
430.002	2.17
430.354	2.13
430.706	2.19
431.058	2.18
431.41	2.18
431.762	2.19
432.114	2.25
432.466	2.2
432.817	2.25
433.169	2.36
433.521	2.4
433.872	2.36
434.224	2.36
434.576	2.37
434.927	2.28
435.279	2.33
435.63	2.36
435.981	2.42
436.333	2.4
436.684	2.35
437.035	2.32
437.387	2.37
437.738	2.29
438.089	2.34
438.44	2.4
438.791	2.34
439.142	2.35
439.493	2.3
439.844	2.17
440.195	2.11
440.545	2.19
440.896	2.23
441.247	2.26
441.598	2.25
441.948	2.19
442.299	2.15
442.649	2.08
443	2
443.35	1.96
443.701	1.88
444.051	1.85
444.401	1.87
444.752	1.81
445.102	1.73
445.452	1.71
445.802	1.66
446.152	1.7
446.502	1.85
446.852	1.85
447.202	1.86
447.552	1.87
447.902	1.92
448.252	1.93
448.602	1.49
448.952	1.42
449.301	1.42
449.651	1.48
450.001	1.51
450.35	1.56
450.7	1.51
451.049	1.49
451.399	1.56
451.748	1.67
452.097	1.72
452.447	1.78
452.796	1.77
453.145	1.79
453.494	1.74
453.843	1.78
454.193	1.89
454.542	2.05
454.891	2.11
455.239	2.06
455.588	2.05
455.937	2.11
456.286	2.17
456.635	2.15
456.984	2.2
457.332	2.89
457.681	3.03
458.03	3
458.378	2.94
458.727	2.95
459.075	2.94
459.423	3.02
459.772	3.02
460.12	3.07
460.468	3.15
460.817	3.24
461.165	3.34
461.513	3.36
461.861	3.5
462.209	3.53
462.557	3.48
462.905	3.45
463.253	3.4
463.601	3.38
463.949	3.38
464.297	3.4
464.644	3.32
464.992	3.28
465.34	3.34
465.687	3.41
466.035	3.44
466.383	3.39
466.73	3.45
467.078	3.48
467.425	3.38
467.772	3.33
468.12	3.34
468.467	3.35
468.814	3.38
469.161	3.25
469.508	3.18
469.856	3.09
470.203	3.15
470.55	2.95
470.897	3.02
471.243	3.03
471.59	2.98
471.937	2.94
472.284	2.9
472.631	2.83
472.977	2.78
473.324	2.87
473.671	2.82
474.017	2.78
474.364	2.65
474.71	2.58
475.057	2.59
475.403	2.5
475.749	2.42
476.096	2.45
476.442	2.51
476.788	2.45
477.134	2.52
477.48	2.47
477.826	2.47
478.172	2.44
478.518	2.45
478.864	2.5
479.21	2.56
479.556	2.52
479.902	2.53
480.248	2.59
480.593	2.59
480.939	2.64
481.285	2.72
481.63	2.76
481.976	2.67
482.321	2.73
482.667	2.75
483.012	2.88
483.357	2.9
483.703	2.96
484.048	3.08
484.393	3.2
484.738	3.33
485.084	3.42
485.429	3.55
485.774	3.65
486.119	3.79
486.464	3.98
486.808	4.13
487.153	4.34
487.498	4.46
487.843	4.7
488.188	5
488.532	5.24
488.877	5.51
489.222	5.84
489.566	6.13
489.911	6.53
490.255	6.9
490.6	7.37
490.944	7.74
491.288	8.07
491.633	8.42
491.977	8.9
492.321	9.37
492.665	9.76
493.009	10.17
493.353	10.59
493.697	11.03
494.041	11.53
494.385	12
494.729	12.46
495.073	12.96
495.417	13.53
495.76	14.06
496.104	14.66
496.448	15.19
496.791	15.72
497.135	16.29
497.479	16.88
497.822	17.42
498.165	17.96
498.509	18.5
498.852	19.06
499.196	19.62
499.539	20.29
499.882	20.92
500.225	21.61
500.568	22.15
500.911	22.68
501.254	23.34
501.597	23.98
501.94	24.55
502.283	25.1
502.626	25.68
502.969	26.15
503.312	26.71
503.654	27.17
503.997	27.67
504.34	28.28
504.682	28.78
505.025	29.32
505.367	29.83
505.71	30.38
506.052	30.95
506.395	31.49
506.737	32.08
507.079	32.52
507.421	33.03
507.764	33.58
508.106	34.01
508.448	34.47
508.79	34.74
509.132	35.25
509.474	35.71
509.816	36.07
510.158	36.44
510.499	36.98
510.841	37.44
511.183	37.75
511.525	38.22
511.866	38.69
512.208	39.02
512.549	39.41
512.891	39.64
513.232	39.97
513.574	40.33
513.915	40.6
514.256	40.81
514.598	41.01
514.939	41.36
515.28	41.56
515.621	41.79
515.962	41.98
516.303	42.23
516.644	42.43
516.985	42.65
517.326	42.97
517.667	43.14
518.008	43.36
518.349	43.6
518.69	43.77
519.03	43.94
519.371	44.05
519.712	44.24
520.052	44.31
520.393	44.41
520.733	44.71
521.074	44.84
521.414	45.09
521.754	45.31
522.095	45.5
522.435	45.8
522.775	46.07
523.115	46.12
523.455	46.08
523.795	46.21
524.135	46.33
524.475	46.67
524.815	46.69
525.155	46.85
525.495	47.11
525.835	47.25
526.175	47.29
526.514	47.35
526.854	47.46
527.194	47.52
527.533	47.48
527.873	47.61
528.212	47.73
528.552	47.98
528.891	48.09
529.23	48.16
529.57	48.16
529.909	48.28
530.248	48.29
530.587	48.39
530.927	48.42
531.266	48.42
531.605	48.59
531.944	48.83
532.283	48.91
532.621	49.11
532.96	49.14
533.299	49.24
533.638	49.31
533.977	49.16
534.315	49.26
534.654	49.39
534.992	49.44
535.331	49.42
535.67	49.53
536.008	49.61
536.346	49.65
536.685	49.91
537.023	49.97
537.361	50.05
537.7	50.13
538.038	50.38
538.376	50.27
538.714	50.27
539.052	50.26
539.39	50.3
539.728	50.39
540.066	50.42
540.404	50.37
540.741	50.38
541.079	50.49
541.417	50.51
541.755	50.56
542.092	50.67
542.43	50.79
542.767	50.75
543.105	50.8
543.442	50.9
543.78	51.03
544.117	51.01
544.454	50.96
544.792	50.95
545.129	50.93
545.466	50.85
545.803	50.94
546.14	50.91
546.477	50.78
546.814	50.9
547.151	50.97
547.488	50.99
547.825	50.94
548.162	50.93
548.499	51.04
548.835	51.18
549.172	51.21
549.509	51.07
549.845	51.06
550.182	51.18
550.518	51.04
550.855	51.1
551.191	51.17
551.528	51.11
551.864	51.11
552.2	51.07
552.537	51.1
552.873	51.28
553.209	51.31
553.545	51.16
553.881	51.13
554.217	51.07
554.553	51.34
554.889	51.4
555.225	51.47
555.561	51.55
555.896	51.51
556.232	51.7
556.568	51.72
556.903	51.71
557.239	51.66
557.575	51.84
557.91	52.01
558.245	52.15
558.581	51.91
558.916	52.11
559.252	52.07
559.587	52.05
559.922	52.06
560.257	52.12
560.592	52.05
560.928	52.06
561.263	52.19
561.598	52.38
561.933	52.54
562.267	52.76
562.602	52.81
562.937	52.72
563.272	52.8
563.607	52.83
563.941	53.12
564.276	53.22
564.611	53.3
564.945	53.39
565.28	53.57
565.614	53.66
565.949	53.57
566.283	53.63
566.617	53.66
566.951	53.92
567.286	53.94
567.62	54.04
567.954	54.13
568.288	54.28
568.622	54.21
568.956	54.15
569.29	54.21
569.624	54.12
569.958	54.15
570.292	54.15
570.626	54.09
570.959	54.07
571.293	54.13
571.627	54.3
571.96	54.29
572.294	54.14
572.627	54.16
572.961	54.07
573.294	54.13
573.627	54.14
573.961	54.14
574.294	54.28
574.627	54.33
574.961	54.4
575.294	54.33
575.627	54.23
575.96	54.31
576.293	54.2
576.626	54.17
576.959	54.12
577.292	54.19
577.624	54.21
577.957	54.26
578.29	54.25
578.623	54.29
578.955	54.31
579.288	54.48
579.62	54.38
579.953	54.25
580.285	54.16
580.618	54.24
580.95	54.22
581.282	54.3
581.615	54.4
581.947	54.38
582.279	54.43
582.611	54.29
582.943	54.25
583.275	54.12
583.607	54.24
583.939	54.33
584.271	54.22
584.603	54.34
584.935	54.31
585.267	54.46
585.598	54.53
585.93	54.69
586.262	54.66
586.593	54.6
586.925	54.51
587.256	54.45
587.588	54.3
587.919	54.38
588.25	54.45
588.582	54.61
588.913	54.59
589.244	54.64
589.575	54.68
589.907	54.56
590.238	54.55
590.569	54.69
590.9	54.79
591.231	54.91
591.562	54.97
591.892	55.03
592.223	55.1
592.554	55.28
592.885	55.25
593.215	55.16
593.546	55.24
593.877	55.33
594.207	55.27
594.538	55.29
594.868	55.37
595.198	55.39
595.529	55.51
595.859	55.48
596.189	55.51
596.52	55.51
596.85	55.55
597.18	55.44
597.51	55.47
597.84	55.34
598.17	55.32
598.5	55.34
598.83	55.24
599.16	55.32
599.489	55.23
599.819	55.21
600.149	55.06
600.479	55.02
600.808	54.84
601.138	54.8
601.467	54.93
601.797	54.82
602.126	54.76
602.456	54.74
602.785	54.71
603.114	54.71
603.443	54.73
603.773	54.74
604.102	54.83
604.431	54.82
604.76	54.91
605.089	54.92
605.418	54.9
605.747	54.83
606.076	54.95
606.405	54.97
606.733	54.99
607.062	54.98
607.391	54.81
607.72	54.78
608.048	54.76
608.377	54.79
608.705	54.8
609.034	54.87
609.362	54.94
609.69	54.99
610.019	55.1
610.347	55.11
610.675	55
611.004	55.01
611.332	55.07
611.66	55.09
611.988	55
612.316	54.98
612.644	54.8
612.972	54.68
613.3	54.72
613.627	54.88
613.955	54.92
614.283	54.92
614.611	54.96
614.938	54.94
615.266	54.82
615.593	54.87
615.921	54.86
616.248	55.06
616.576	55.09
616.903	55.21
617.23	55.25
617.558	55.22
617.885	55.11
618.212	55.16
618.539	55.2
618.866	55.03
619.193	55.04
619.52	54.87
619.847	55.15
620.174	55.19
620.501	55.29
620.828	55.45
621.155	55.38
621.481	55.08
621.808	55.02
622.135	55.05
622.461	55.06
622.788	54.81
623.114	55.05
623.441	55.18
623.767	55.35
624.093	55.5
624.42	55.4
624.746	55.39
625.072	55.56
625.398	55.53
625.725	55.85
626.051	56.22
626.377	56.21
626.703	56.08
627.029	56.44
627.354	56.5
627.68	56.39
628.006	56.31
628.332	56.34
628.658	56.14
628.983	56.37
629.309	56.58
629.634	57.17
629.96	57.08
630.285	56.91
630.611	56.59
630.936	56.63
631.262	56.38
631.587	56.15
631.912	55.88
632.237	55.42
632.562	55.47
632.887	55.49
633.213	54.88
633.538	54.67
633.863	54.45
634.187	54.19
634.512	53.76
634.837	54.02
635.162	53.99
635.487	53.77
635.811	54.25
636.136	53.88
636.461	54.07
636.785	54.12
637.11	54.11
637.434	54.08
637.758	53.94
638.083	54.49
638.407	54.39
638.731	54.42
639.056	55.07
639.38	54.97
639.704	55.4
640.028	55.78
640.352	56.34
640.676	56.31
641	56.33
641.324	56.33
641.648	56.44
641.972	56.26
642.295	56.19
642.619	56.23
642.943	55.64
643.266	55.28
643.59	55.1
643.913	55.08
644.237	55.28
644.56	54.86
644.884	54.83
645.207	55.09
645.53	55.02
645.854	54.89
646.177	54.36
646.5	54.53
646.823	54.6
647.146	54.37
647.469	54.21
647.792	53.73
648.115	53.58
648.438	53.77
648.761	55.19
649.084	56.21
649.406	56.72
649.729	56.17
650.052	55.81
650.374	55.41
650.697	55.3
651.019	55.33
651.342	55.27
651.664	55.41
651.987	55.33
652.309	55.38
652.631	55.39
652.953	55.36
653.276	55.3
653.598	55.32
653.92	55.4
654.242	55.59
654.564	55.71
654.886	55.75
655.208	55.78
655.53	55.94
655.851	56.07
656.173	56.13
656.495	56.15
656.816	55.61
657.138	55.01
657.46	54.24
