Data from T2__Reflection__45__00-31-39-794.txt Node

Date: Sat Jun 05 00:31:39 CEST 2021
User: mabdelazizm
Spectrometer: FLMS18565
Trigger mode: 0
Integration Time (sec): 2.000000E0
Scans to average: 1
Electric dark correction enabled: true
Nonlinearity correction enabled: false
Boxcar width: 12
XAxis mode: Wavelengths
Number of Pixels in Spectrum: 2048
>>>>>Begin Spectral Data<<<<<
179.071	85.27
179.452	75.87
179.833	82.85
180.214	91.14
180.595	52.41
180.977	-125
181.358	17.92
181.739	153.57
182.12	76.94
182.501	77.1
182.882	66.63
183.262	22.37
183.643	75.68
184.024	79.15
184.405	74.88
184.786	56.33
185.166	56.28
185.547	62.22
185.927	52.51
186.308	55.78
186.689	58.01
187.069	64.1
187.449	59.05
187.83	60.21
188.21	50.93
188.59	47.52
188.971	37.45
189.351	29.88
189.731	31.35
190.111	22.31
190.491	19.96
190.871	21.88
191.251	30.87
191.631	33.74
192.011	31.09
192.391	30.07
192.771	28.88
193.151	23.13
193.531	22.74
193.91	24.18
194.29	26.67
194.67	27.97
195.049	26.51
195.429	27.32
195.808	24.26
196.188	22
196.567	17.73
196.946	16.97
197.326	15.98
197.705	15.18
198.084	17.36
198.464	20.62
198.843	22.98
199.222	22.81
199.601	23.73
199.98	22.75
200.359	19.31
200.738	18.7
201.117	12.61
201.496	13.58
201.875	12.27
202.254	9.42
202.632	11.18
203.011	11.56
203.39	10.67
203.768	10.53
204.147	9.81
204.525	8.54
204.904	8.11
205.282	9.97
205.661	9.38
206.039	9.95
206.418	8.87
206.796	9.67
207.174	6.21
207.552	5
207.931	3.53
208.309	4.92
208.687	3.44
209.065	3.44
209.443	0.91
209.821	3.21
210.199	1.4
210.577	5.51
210.954	5.67
211.332	4.83
211.71	7.38
212.088	8.77
212.465	7.48
212.843	9.71
213.221	11.23
213.598	10.03
213.976	9.26
214.353	8.9
214.731	10.11
215.108	9.86
215.485	9.93
215.863	6.41
216.24	5.93
216.617	8.48
216.994	9.1
217.371	8.62
217.749	9.25
218.126	10.46
218.503	9.72
218.88	9.58
219.256	9.56
219.633	9.39
220.01	7.59
220.387	8.39
220.764	7.52
221.14	6.13
221.517	5.64
221.894	4.9
222.27	3.45
222.647	1.91
223.023	2.47
223.4	2.75
223.776	3.23
224.153	2.5
224.529	3.2
224.905	3.34
225.282	3.92
225.658	2.65
226.034	2.16
226.41	2.31
226.786	2.71
227.162	1.95
227.538	1.57
227.914	1.57
228.29	1.97
228.666	1.32
229.042	1.34
229.418	1.5
229.793	1.2
230.169	1.3
230.545	1.36
230.92	1.13
231.296	0.89
231.672	1.17
232.047	1.18
232.422	0.97
232.798	0.99
233.173	0.8
233.549	1
233.924	0.93
234.299	0.8
234.674	0.87
235.05	1.35
235.425	1.47
235.8	1.23
236.175	1.15
236.55	1.26
236.925	1.33
237.3	1.25
237.675	1.26
238.049	1.37
238.424	1.32
238.799	1.3
239.174	1.36
239.548	1.37
239.923	1.29
240.297	1.29
240.672	1.48
241.046	1.34
241.421	1.29
241.795	1.24
242.17	1.15
242.544	1.15
242.918	1.01
243.293	0.96
243.667	0.93
244.041	0.94
244.415	0.85
244.789	0.75
245.163	0.74
245.537	0.74
245.911	0.66
246.285	0.58
246.659	0.56
247.033	0.54
247.406	0.48
247.78	0.48
248.154	0.48
248.528	0.36
248.901	0.47
249.275	0.47
249.648	0.48
250.022	0.4
250.395	0.43
250.769	0.43
251.142	0.51
251.515	0.57
251.888	0.58
252.262	0.6
252.635	0.58
253.008	0.54
253.381	0.53
253.754	0.5
254.127	0.51
254.5	0.54
254.873	0.47
255.246	0.48
255.619	0.5
255.992	0.56
256.364	0.56
256.737	0.56
257.11	0.56
257.483	0.59
257.855	0.58
258.228	0.47
258.6	0.5
258.973	0.59
259.345	0.61
259.718	0.58
260.09	0.59
260.462	0.5
260.834	0.51
261.207	0.51
261.579	0.5
261.951	0.52
262.323	0.54
262.695	0.61
263.067	0.65
263.439	0.64
263.811	0.63
264.183	0.7
264.555	0.7
264.927	0.69
265.298	0.67
265.67	0.62
266.042	0.67
266.413	0.68
266.785	0.6
267.156	0.64
267.528	0.66
267.899	0.65
268.271	0.53
268.642	0.53
269.013	0.5
269.385	0.47
269.756	0.45
270.127	0.45
270.498	0.43
270.87	0.41
271.241	0.37
271.612	0.36
271.983	0.3
272.354	0.27
272.724	0.25
273.095	0.26
273.466	0.25
273.837	0.26
274.208	0.26
274.578	0.26
274.949	0.29
275.32	0.25
275.69	0.24
276.061	0.31
276.431	0.3
276.802	0.28
277.172	0.25
277.542	0.28
277.913	0.29
278.283	0.33
278.653	0.33
279.023	0.41
279.394	0.43
279.764	0.43
280.134	0.42
280.504	0.5
280.874	0.56
281.244	0.57
281.614	0.54
281.983	0.59
282.353	0.56
282.723	0.56
283.093	0.56
283.462	0.56
283.832	0.51
284.202	0.53
284.571	0.51
284.941	0.52
285.31	0.53
285.68	0.57
286.049	0.55
286.418	0.61
286.788	0.65
287.157	0.62
287.526	0.61
287.895	0.61
288.264	0.55
288.633	0.55
289.002	0.53
289.371	0.56
289.74	0.51
290.109	0.48
290.478	0.48
290.847	0.48
291.216	0.46
291.585	0.48
291.953	0.47
292.322	0.48
292.691	0.51
293.059	0.53
293.428	0.5
293.796	0.53
294.165	0.5
294.533	0.44
294.901	0.4
295.27	0.41
295.638	0.35
296.006	0.29
296.374	0.26
296.743	0.24
297.111	0.25
297.479	0.29
297.847	0.23
298.215	0.26
298.583	0.23
298.95	0.24
299.318	0.24
299.686	0.25
300.054	0.25
300.422	0.29
300.789	0.29
301.157	0.28
301.525	0.23
301.892	0.22
302.26	0.2
302.627	0.19
302.994	0.18
303.362	0.21
303.729	0.26
304.097	0.28
304.464	0.3
304.831	0.32
305.198	0.33
305.565	0.36
305.932	0.37
306.299	0.38
306.666	0.38
307.033	0.4
307.4	0.38
307.767	0.39
308.134	0.37
308.501	0.33
308.867	0.36
309.234	0.37
309.601	0.37
309.967	0.35
310.334	0.37
310.701	0.38
311.067	0.37
311.433	0.4
311.8	0.42
312.166	0.39
312.533	0.35
312.899	0.33
313.265	0.3
313.631	0.26
313.997	0.3
314.363	0.28
314.729	0.25
315.096	0.2
315.461	0.19
315.827	0.19
316.193	0.23
316.559	0.21
316.925	0.23
317.291	0.26
317.656	0.27
318.022	0.25
318.388	0.22
318.753	0.16
319.119	0.16
319.484	0.11
319.85	0.14
320.215	0.11
320.581	0.11
320.946	0.08
321.311	0.11
321.676	0.11
322.042	0.11
322.407	0.11
322.772	0.16
323.137	0.11
323.502	0.12
323.867	0.17
324.232	0.22
324.597	0.22
324.962	0.23
325.327	0.16
325.691	0.2
326.056	0.19
326.421	0.18
326.785	0.18
327.15	0.14
327.514	0.18
327.879	0.19
328.243	0.18
328.608	0.23
328.972	0.22
329.337	0.23
329.701	0.26
330.065	0.22
330.429	0.2
330.794	0.18
331.158	0.2
331.522	0.12
331.886	0.13
332.25	0.08
332.614	0.08
332.978	0.03
333.342	0.01
333.705	-0.01
334.069	-0.06
334.433	-0.05
334.797	-0.02
335.16	-0.01
335.524	-0.05
335.887	-0.07
336.251	-0.03
336.614	-0.05
336.978	-0.07
337.341	-0.02
337.705	-0.09
338.068	-0.07
338.431	-0.04
338.794	-0.06
339.158	0.01
339.521	-0
339.884	0.05
340.247	-0.03
340.61	0.03
340.973	0.01
341.336	0.05
341.699	0.02
342.062	0.03
342.424	0.07
342.787	0.02
343.15	0.01
343.512	0.02
343.875	-0.06
344.238	-0.09
344.6	-0.06
344.963	-0.05
345.325	-0.04
345.688	-0.06
346.05	-0.02
346.412	-0.05
346.775	0.02
347.137	0.05
347.499	0.02
347.861	0.07
348.223	0.04
348.585	0.08
348.947	0.08
349.309	0.11
349.671	0.09
350.033	0.13
350.395	0.09
350.757	0.14
351.118	0.11
351.48	0.08
351.842	0.14
352.203	0.19
352.565	0.17
352.927	0.2
353.288	0.22
353.65	0.19
354.011	0.18
354.372	0.18
354.734	0.22
355.095	0.2
355.456	0.15
355.817	0.04
356.179	0.04
356.54	0.02
356.901	-0.07
357.262	-0.05
357.623	-0.11
357.984	-0.17
358.345	-0.11
358.705	-0.09
359.066	-0.14
359.427	-0.06
359.788	-0.08
360.148	-0
360.509	0.04
360.87	0.01
361.23	0.05
361.591	0.09
361.951	0.12
362.312	0.12
362.672	0.13
363.032	0.16
363.393	0.13
363.753	0.15
364.113	0.12
364.473	0.18
364.833	0.23
365.193	0.12
365.553	0.13
365.913	0.1
366.273	0.16
366.633	0.24
366.993	0.22
367.353	0.15
367.713	0.16
368.072	0.15
368.432	0.14
368.792	0.14
369.151	0.05
369.511	0.01
369.87	0.01
370.23	0.01
370.589	-0.08
370.949	-0.16
371.308	-0.18
371.667	-0.2
372.027	-0.18
372.386	-0.17
372.745	-0.11
373.104	-0.01
373.463	-0.04
373.822	-0.05
374.181	0.02
374.54	0.03
374.899	0.1
375.258	0.07
375.617	-0.02
375.975	0.03
376.334	0.04
376.693	0.02
377.052	0.04
377.41	-0
377.769	-0
378.127	0.03
378.486	0.02
378.844	0.03
379.202	-0.03
379.561	0.04
379.919	0.07
380.277	0.1
380.636	0.14
380.994	0.1
381.352	0.08
381.71	0.02
382.068	-0.05
382.426	-0.04
382.784	0.03
383.142	0.01
383.5	0.03
383.857	0.02
384.215	-0.02
384.573	0.03
384.931	0.03
385.288	-0
385.646	0
386.003	0.01
386.361	0.08
386.718	0.06
387.076	0.12
387.433	0.21
387.791	0.18
388.148	0.24
388.505	0.17
388.862	0.18
389.22	0.19
389.577	0.16
389.934	0.15
390.291	0.12
390.648	0.11
391.005	0.15
391.362	0.18
391.718	0.22
392.075	0.25
392.432	0.19
392.789	0.22
393.145	0.23
393.502	0.27
393.859	0.22
394.215	0.25
394.572	0.3
394.928	0.28
395.285	0.23
395.641	0.2
395.997	0.16
396.354	0.06
396.71	0.13
397.066	0.09
397.422	0.13
397.778	0.09
398.134	0.05
398.491	0.05
398.846	0.05
399.202	0.04
399.558	0.06
399.914	0
400.27	0.01
400.626	-0.05
400.981	-0.1
401.337	-0.02
401.693	-0.08
402.048	-0.09
402.404	-0.15
402.759	-0.12
403.115	-0.07
403.47	-0.08
403.826	-0.04
404.181	-0.07
404.536	-0.07
404.892	-0.05
405.247	0.01
405.602	-0.05
405.957	-0.05
406.312	-0.08
406.667	-0.03
407.022	-0.03
407.377	0.02
407.732	0.03
408.087	0.13
408.442	0.17
408.796	0.17
409.151	0.18
409.506	0.12
409.86	0.14
410.215	0.17
410.57	0.25
410.924	0.31
411.279	0.36
411.633	0.45
411.987	0.47
412.342	0.5
412.696	0.52
413.05	0.58
413.404	0.64
413.758	0.72
414.113	0.71
414.467	0.75
414.821	0.79
415.175	0.92
415.529	0.99
415.882	1.09
416.236	1.13
416.59	1.19
416.944	1.24
417.298	1.26
417.651	1.32
418.005	1.38
418.358	1.49
418.712	1.59
419.065	1.58
419.419	1.58
419.772	1.59
420.126	1.61
420.479	1.68
420.832	1.67
421.185	1.77
421.539	1.77
421.892	1.88
422.245	1.94
422.598	1.97
422.951	2.07
423.304	2.16
423.657	2.24
424.01	2.21
424.363	2.28
424.715	2.41
425.068	2.49
425.421	2.61
425.773	2.6
426.126	2.77
426.479	2.88
426.831	2.93
427.184	3.04
427.536	3.1
427.889	3.23
428.241	3.29
428.593	3.39
428.945	3.52
429.298	3.6
429.65	3.68
430.002	3.71
430.354	3.84
430.706	3.89
431.058	3.95
431.41	3.91
431.762	3.96
432.114	4.01
432.466	4.06
432.817	4.19
433.169	4.26
433.521	4.26
433.872	4.3
434.224	4.3
434.576	4.4
434.927	4.28
435.279	4.29
435.63	4.27
435.981	4.25
436.333	4.28
436.684	4.29
437.035	4.37
437.387	4.38
437.738	4.35
438.089	4.3
438.44	4.36
438.791	4.34
439.142	4.29
439.493	4.22
439.844	4.21
440.195	4.29
440.545	4.37
440.896	4.38
441.247	4.35
441.598	4.29
441.948	4.26
442.299	4.19
442.649	4.13
443	4.13
443.35	4.09
443.701	4.07
444.051	4.12
444.401	4.18
444.752	4.17
445.102	4.14
445.452	4.06
445.802	4.01
446.152	3.99
446.502	4.1
446.852	4.14
447.202	4.1
447.552	4.1
447.902	4.19
448.252	4.23
448.602	4.66
448.952	4.64
449.301	4.64
449.651	4.65
450.001	4.75
450.35	4.81
450.7	4.91
451.049	4.94
451.399	5.09
451.748	5.19
452.097	5.24
452.447	5.31
452.796	5.31
453.145	5.46
453.494	5.54
453.843	5.58
454.193	5.78
454.542	5.93
454.891	6.09
455.239	6.11
455.588	6.15
455.937	6.26
456.286	6.47
456.635	6.5
456.984	6.63
457.332	6.23
457.681	6.33
458.03	6.46
458.378	6.61
458.727	6.8
459.075	6.88
459.423	6.98
459.772	7.12
460.12	7.12
460.468	7.12
460.817	7.24
461.165	7.33
461.513	7.47
461.861	7.55
462.209	7.55
462.557	7.57
462.905	7.49
463.253	7.53
463.601	7.55
463.949	7.58
464.297	7.55
464.644	7.54
464.992	7.35
465.34	7.35
465.687	7.3
466.035	7.38
466.383	7.37
466.73	7.28
467.078	7.2
467.425	6.96
467.772	6.95
468.12	6.77
468.467	6.71
468.814	6.7
469.161	6.67
469.508	6.58
469.856	6.47
470.203	6.27
470.55	6.01
470.897	5.98
471.243	5.96
471.59	5.87
471.937	5.71
472.284	5.56
472.631	5.4
472.977	5.31
473.324	5.31
473.671	5.23
474.017	5.13
474.364	4.96
474.71	4.82
475.057	4.77
475.403	4.65
475.749	4.58
476.096	4.6
476.442	4.65
476.788	4.58
477.134	4.62
477.48	4.56
477.826	4.5
478.172	4.52
478.518	4.49
478.864	4.62
479.21	4.67
479.556	4.68
479.902	4.75
480.248	4.85
480.593	4.93
480.939	4.99
481.285	5.13
481.63	5.25
481.976	5.24
482.321	5.34
482.667	5.45
483.012	5.62
483.357	5.71
483.703	5.83
484.048	5.99
484.393	6.2
484.738	6.37
485.084	6.41
485.429	6.6
485.774	6.73
486.119	6.89
486.464	7.11
486.808	7.27
487.153	7.51
487.498	7.66
487.843	7.8
488.188	8
488.532	8.22
488.877	8.48
489.222	8.72
489.566	9.01
489.911	9.2
490.255	9.41
490.6	9.67
490.944	9.93
491.288	10.15
491.633	10.37
491.977	10.62
492.321	10.86
492.665	11.01
493.009	11.14
493.353	11.2
493.697	11.35
494.041	11.55
494.385	11.68
494.729	11.73
495.073	11.8
495.417	11.91
495.76	12.02
496.104	12.07
496.448	12.21
496.791	12.34
497.135	12.36
497.479	12.35
497.822	12.32
498.165	12.35
498.509	12.34
498.852	12.26
499.196	12.3
499.539	12.28
499.882	12.22
500.225	12.24
500.568	12.18
500.911	12.12
501.254	12.16
501.597	12.08
501.94	12.03
502.283	12.06
502.626	12.04
502.969	11.93
503.312	11.95
503.654	11.83
503.997	11.84
504.34	11.84
504.682	11.83
505.025	11.83
505.367	11.75
505.71	11.71
506.052	11.67
506.395	11.67
506.737	11.52
507.079	11.52
507.421	11.56
507.764	11.49
508.106	11.43
508.448	11.43
508.79	11.3
509.132	11.32
509.474	11.27
509.816	11.17
510.158	11.11
510.499	11.17
510.841	11.04
511.183	10.99
511.525	10.99
511.866	10.94
512.208	10.96
512.549	10.86
512.891	10.71
513.232	10.6
513.574	10.47
513.915	10.38
514.256	10.29
514.598	10.27
514.939	10.25
515.28	10.25
515.621	10.25
515.962	10.25
516.303	10.24
516.644	10.22
516.985	10.14
517.326	10.13
517.667	10.1
518.008	10.02
518.349	9.93
518.69	9.94
519.03	9.81
519.371	9.82
519.712	9.73
520.052	9.67
520.393	9.74
520.733	9.72
521.074	9.62
521.414	9.64
521.754	9.64
522.095	9.68
522.435	9.66
522.775	9.66
523.115	9.55
523.455	9.43
523.795	9.42
524.135	9.32
524.475	9.19
524.815	9.09
525.155	8.99
525.495	9.06
525.835	9.09
526.175	8.95
526.514	8.97
526.854	9.03
527.194	9.01
527.533	8.94
527.873	8.91
528.212	8.93
528.552	8.89
528.891	8.78
529.23	8.72
529.57	8.77
529.909	8.74
530.248	8.61
530.587	8.55
530.927	8.51
531.266	8.53
531.605	8.49
531.944	8.56
532.283	8.42
532.621	8.3
532.96	8.39
533.299	8.41
533.638	8.4
533.977	8.27
534.315	8.23
534.654	8.25
534.992	8.12
535.331	7.96
535.67	7.94
536.008	7.97
536.346	7.93
536.685	7.91
537.023	7.87
537.361	7.72
537.7	7.74
538.038	7.74
538.376	7.66
538.714	7.72
539.052	7.61
539.39	7.56
539.728	7.58
540.066	7.65
540.404	7.58
540.741	7.65
541.079	7.75
541.417	7.66
541.755	7.59
542.092	7.62
542.43	7.61
542.767	7.53
543.105	7.55
543.442	7.61
543.78	7.64
544.117	7.62
544.454	7.55
544.792	7.48
545.129	7.42
545.466	7.37
545.803	7.48
546.14	7.4
546.477	7.34
546.814	7.28
547.151	7.23
547.488	7.24
547.825	7.23
548.162	7.14
548.499	7.03
548.835	7.03
549.172	6.98
549.509	6.88
549.845	6.86
550.182	6.91
550.518	6.79
550.855	6.86
551.191	6.92
551.528	6.82
551.864	6.77
552.2	6.81
552.537	6.82
552.873	6.94
553.209	6.96
553.545	7.02
553.881	7.12
554.217	7.19
554.553	7.37
554.889	7.48
555.225	7.61
555.561	7.71
555.896	7.76
556.232	7.74
556.568	7.71
556.903	7.8
557.239	7.78
557.575	7.78
557.91	7.87
558.245	8.02
558.581	8.04
558.916	8.17
559.252	8.15
559.587	8.24
559.922	8.3
560.257	8.43
560.592	8.46
560.928	8.4
561.263	8.35
561.598	8.35
561.933	8.39
562.267	8.43
562.602	8.42
562.937	8.38
563.272	8.29
563.607	8.32
563.941	8.45
564.276	8.49
564.611	8.58
564.945	8.61
565.28	8.74
565.614	8.85
565.949	8.95
566.283	9.06
566.617	9.01
566.951	9.1
567.286	9.16
567.62	9.18
567.954	9.21
568.288	9.29
568.622	9.26
568.956	9.31
569.29	9.46
569.624	9.5
569.958	9.58
570.292	9.52
570.626	9.52
570.959	9.57
571.293	9.58
571.627	9.67
571.96	9.71
572.294	9.68
572.627	9.76
572.961	9.83
573.294	9.92
573.627	9.89
573.961	9.96
574.294	10.01
574.627	9.94
574.961	10.05
575.294	10.06
575.627	10.08
575.96	10.2
576.293	10.14
576.626	10.18
576.959	10.27
577.292	10.3
577.624	10.29
577.957	10.34
578.29	10.39
578.623	10.43
578.955	10.51
579.288	10.55
579.62	10.57
579.953	10.62
580.285	10.65
580.618	10.75
580.95	10.74
581.282	10.8
581.615	10.83
581.947	10.95
582.279	10.96
582.611	11.06
582.943	11.23
583.275	11.24
583.607	11.38
583.939	11.44
584.271	11.42
584.603	11.57
584.935	11.54
585.267	11.56
585.598	11.63
585.93	11.7
586.262	11.86
586.593	11.85
586.925	11.97
587.256	12
587.588	12.02
587.919	12.2
588.25	12.24
588.582	12.34
588.913	12.37
589.244	12.48
589.575	12.52
589.907	12.61
590.238	12.65
590.569	12.78
590.9	12.79
591.231	12.86
591.562	12.91
591.892	12.97
592.223	13.06
592.554	13.16
592.885	13.21
593.215	13.39
593.546	13.4
593.877	13.52
594.207	13.63
594.538	13.71
594.868	13.89
595.198	13.95
595.529	14.05
595.859	14.17
596.189	14.17
596.52	14.25
596.85	14.29
597.18	14.38
597.51	14.46
597.84	14.55
598.17	14.57
598.5	14.61
598.83	14.63
599.16	14.82
599.489	14.89
599.819	15.06
600.149	15.09
600.479	15.29
600.808	15.52
601.138	15.66
601.467	15.72
601.797	15.97
602.126	16.07
602.456	16.2
602.785	16.22
603.114	16.29
603.443	16.44
603.773	16.61
604.102	16.76
604.431	16.99
604.76	17.09
605.089	17.29
605.418	17.39
605.747	17.48
606.076	17.63
606.405	17.83
606.733	18.04
607.062	18.29
607.391	18.24
607.72	18.41
608.048	18.6
608.377	18.71
608.705	18.89
609.034	18.92
609.362	19.13
609.69	19.43
610.019	19.59
610.347	19.82
610.675	20.03
611.004	20.17
611.332	20.39
611.66	20.63
611.988	20.7
612.316	20.78
612.644	20.83
612.972	21.06
613.3	21.11
613.627	21.28
613.955	21.51
614.283	21.66
614.611	21.89
614.938	22.1
615.266	22.21
615.593	22.58
615.921	22.83
616.248	22.98
616.576	23.32
616.903	23.62
617.23	24.09
617.558	24.2
617.885	24.52
618.212	24.74
618.539	24.88
618.866	24.98
619.193	25.24
619.52	25.47
619.847	25.84
620.174	26.35
620.501	26.58
620.828	26.91
621.155	26.94
621.481	27.21
621.808	27.54
622.135	27.88
622.461	28.2
622.788	28.16
623.114	28.4
623.441	28.67
623.767	28.93
624.093	29
624.42	29.06
624.746	29.53
625.072	29.81
625.398	29.79
625.725	30.3
626.051	30.46
626.377	30.72
626.703	31.18
627.029	31.32
627.354	31.6
627.68	31.45
628.006	31.51
628.332	31.23
628.658	31.5
628.983	31.78
629.309	32.44
629.634	32.64
629.96	32.73
630.285	32.79
630.611	32.87
630.936	33.18
631.262	32.91
631.587	32.8
631.912	32.92
632.237	33.06
632.562	33.72
632.887	33.67
633.213	33.74
633.538	33.79
633.863	33.84
634.187	33.88
634.512	34.07
634.837	33.91
635.162	34.25
635.487	34.31
635.811	35.1
636.136	35.6
636.461	36.03
636.785	36.49
637.11	37.13
637.434	37.11
637.758	37.43
638.083	38.41
638.407	38.74
638.731	38.92
639.056	39.49
639.38	40.04
639.704	40.89
640.028	41.08
640.352	41.94
640.676	42.54
641	42.89
641.324	43.23
641.648	44.04
641.972	44.55
642.295	44.97
642.619	45.16
642.943	45.08
643.266	44.66
643.59	44.61
643.913	44.59
644.237	44.34
644.56	44.27
644.884	43.84
645.207	43.58
645.53	43.52
645.854	43.88
646.177	43.13
646.5	42.81
646.823	43.26
647.146	43.62
647.469	43.66
647.792	43.46
648.115	43.41
648.438	43.59
648.761	44.72
649.084	46.07
649.406	46.38
649.729	45.85
650.052	45.37
650.374	45.1
650.697	44.88
651.019	44.98
651.342	45.23
651.664	45.27
651.987	45.24
652.309	45.41
652.631	45.49
652.953	45.59
653.276	45.42
653.598	45.59
653.92	45.63
654.242	45.88
654.564	45.99
654.886	45.94
655.208	45.9
655.53	45.99
655.851	46.06
656.173	46.33
656.495	46.27
656.816	45.81
657.138	45.22
657.46	44.8
657.781	45.21
658.103	46.67
658.424	48.1
658.746	49.3
659.067	50.24
659.388	50.69
659.709	51.74
660.031	51.8
660.352	51.31
660.673	52.2
660.994	52.9
661.315	53.42
661.636	52.95
661.957	53.02
662.278	53.12
662.599	54.18
662.919	53.94
663.24	54.64
663.561	54.09
663.881	54.08
664.202	53.64
664.523	53.1
664.843	52.64
665.164	51.97
665.484	51.25
665.804	50.82
666.125	50.46
