Data from T2__Reflection__33__23-40-41-925.txt Node

Date: Tue Jun 01 23:40:41 CEST 2021
User: mabdelazizm
Spectrometer: FLMS18565
Trigger mode: 0
Integration Time (sec): 2.000000E0
Scans to average: 1
Electric dark correction enabled: true
Nonlinearity correction enabled: false
Boxcar width: 12
XAxis mode: Wavelengths
Number of Pixels in Spectrum: 2048
>>>>>Begin Spectral Data<<<<<
179.071	42.8
179.452	63.23
179.833	62.7
180.214	58.16
180.595	27.45
180.977	28.5
181.358	23.98
181.739	3.17
182.12	26.83
182.501	24.06
182.882	27.29
183.262	43.64
183.643	50.66
184.024	-120.04
184.405	-29.85
184.786	-13.21
185.166	-0.9
185.547	7.48
185.927	11.7
186.308	4.8
186.689	10.11
187.069	8.08
187.449	5.04
187.83	2.61
188.21	5.35
188.59	8.25
188.971	7.64
189.351	7.58
189.731	8.39
190.111	5.14
190.491	7.93
190.871	8.57
191.251	6.37
191.631	9.28
192.011	9.7
192.391	10.38
192.771	11.48
193.151	9.32
193.531	10.31
193.91	10.07
194.29	10.43
194.67	10.2
195.049	10.87
195.429	9.22
195.808	9.52
196.188	9.07
196.567	8.62
196.946	8.99
197.326	6.77
197.705	7.48
198.084	8.33
198.464	9.06
198.843	10.47
199.222	10.21
199.601	10.52
199.98	9.27
200.359	8.65
200.738	9.01
201.117	8.53
201.496	8.47
201.875	7.58
202.254	7.22
202.632	6.95
203.011	7.09
203.39	6.21
203.768	5.44
204.147	5.79
204.525	5.47
204.904	5.86
205.282	5.02
205.661	5.02
206.039	5.61
206.418	6.02
206.796	6.76
207.174	6.01
207.552	5.28
207.931	4.45
208.309	3.1
208.687	2.81
209.065	2.33
209.443	2.09
209.821	1.99
210.199	1.55
210.577	0.93
210.954	0.3
211.332	0.8
211.71	0.73
212.088	1.03
212.465	0.65
212.843	1.31
213.221	1.77
213.598	1.86
213.976	1.89
214.353	2.01
214.731	2.41
215.108	2.19
215.485	1.89
215.863	1.31
216.24	1.49
216.617	1.47
216.994	1.71
217.371	2.14
217.749	2.1
218.126	2.07
218.503	2.65
218.88	2.86
219.256	2.53
219.633	2.93
220.01	3.11
220.387	2.95
220.764	2.77
221.14	2.4
221.517	2.39
221.894	2.32
222.27	2.37
222.647	2.38
223.023	2.27
223.4	2.16
223.776	2.19
224.153	2.03
224.529	2.16
224.905	2.55
225.282	2.76
225.658	2.8
226.034	2.79
226.41	2.39
226.786	2.26
227.162	2.35
227.538	2.17
227.914	1.89
228.29	1.71
228.666	1.82
229.042	1.81
229.418	1.77
229.793	1.96
230.169	1.84
230.545	1.96
230.92	2
231.296	1.95
231.672	1.9
232.047	1.72
232.422	1.62
232.798	1.43
233.173	1.37
233.549	1.51
233.924	1.38
234.299	1.22
234.674	1.18
235.05	1.03
235.425	1.02
235.8	1.09
236.175	1.15
236.55	1.12
236.925	1.06
237.3	1.03
237.675	1.06
238.049	1.08
238.424	1.05
238.799	1.07
239.174	1.05
239.548	1.02
239.923	0.99
240.297	0.88
240.672	0.85
241.046	0.8
241.421	0.79
241.795	0.75
242.17	0.74
242.544	0.72
242.918	0.66
243.293	0.73
243.667	0.74
244.041	0.77
244.415	0.86
244.789	0.85
245.163	0.83
245.537	0.87
245.911	0.82
246.285	0.86
246.659	0.83
247.033	0.8
247.406	0.84
247.78	0.84
248.154	0.8
248.528	0.78
248.901	0.76
249.275	0.79
249.648	0.82
250.022	0.84
250.395	0.76
250.769	0.78
251.142	0.83
251.515	0.85
251.888	0.82
252.262	0.83
252.635	0.82
253.008	0.79
253.381	0.76
253.754	0.74
254.127	0.71
254.5	0.76
254.873	0.75
255.246	0.77
255.619	0.7
255.992	0.68
256.364	0.65
256.737	0.56
257.11	0.49
257.483	0.5
257.855	0.49
258.228	0.5
258.6	0.48
258.973	0.55
259.345	0.53
259.718	0.56
260.09	0.58
260.462	0.62
260.834	0.6
261.207	0.59
261.579	0.59
261.951	0.61
262.323	0.58
262.695	0.59
263.067	0.62
263.439	0.66
263.811	0.59
264.183	0.55
264.555	0.58
264.927	0.69
265.298	0.76
265.67	0.79
266.042	0.85
266.413	0.94
266.785	0.93
267.156	0.95
267.528	0.92
267.899	0.9
268.271	0.77
268.642	0.8
269.013	0.85
269.385	0.84
269.756	0.8
270.127	0.77
270.498	0.81
270.87	0.8
271.241	0.76
271.612	0.79
271.983	0.73
272.354	0.65
272.724	0.64
273.095	0.66
273.466	0.67
273.837	0.63
274.208	0.63
274.578	0.6
274.949	0.59
275.32	0.48
275.69	0.38
276.061	0.42
276.431	0.4
276.802	0.48
277.172	0.41
277.542	0.47
277.913	0.49
278.283	0.43
278.653	0.48
279.023	0.46
279.394	0.51
279.764	0.44
280.134	0.52
280.504	0.43
280.874	0.38
281.244	0.4
281.614	0.39
281.983	0.41
282.353	0.47
282.723	0.47
283.093	0.48
283.462	0.45
283.832	0.48
284.202	0.46
284.571	0.51
284.941	0.53
285.31	0.49
285.68	0.38
286.049	0.36
286.418	0.42
286.788	0.43
287.157	0.44
287.526	0.47
287.895	0.4
288.264	0.38
288.633	0.35
289.002	0.36
289.371	0.3
289.74	0.36
290.109	0.38
290.478	0.39
290.847	0.43
291.216	0.38
291.585	0.28
291.953	0.25
292.322	0.26
292.691	0.22
293.059	0.2
293.428	0.21
293.796	0.2
294.165	0.19
294.533	0.21
294.901	0.32
295.27	0.29
295.638	0.27
296.006	0.24
296.374	0.2
296.743	0.12
297.111	0.13
297.479	0.17
297.847	0.14
298.215	0.17
298.583	0.17
298.95	0.17
299.318	0.22
299.686	0.2
300.054	0.21
300.422	0.12
300.789	0.17
301.157	0.14
301.525	0.08
301.892	0.16
302.26	0.15
302.627	0.19
302.994	0.14
303.362	0.15
303.729	0.11
304.097	0.04
304.464	0.05
304.831	0.11
305.198	0.09
305.565	0.11
305.932	0.17
306.299	0.06
306.666	0.05
307.033	0.11
307.4	0.17
307.767	0.15
308.134	0.17
308.501	0.16
308.867	0.18
309.234	0.2
309.601	0.24
309.967	0.21
310.334	0.23
310.701	0.29
311.067	0.18
311.433	0.22
311.8	0.18
312.166	0.22
312.533	0.23
312.899	0.22
313.265	0.29
313.631	0.3
313.997	0.21
314.363	0.26
314.729	0.21
315.096	0.16
315.461	0.21
315.827	0.23
316.193	0.2
316.559	0.16
316.925	0.16
317.291	0.16
317.656	0.11
318.022	0.07
318.388	0.02
318.753	0.01
319.119	0.08
319.484	0.11
319.85	0.09
320.215	0.17
320.581	0.17
320.946	0.18
321.311	0.19
321.676	0.13
322.042	0.13
322.407	0.11
322.772	0.14
323.137	0.16
323.502	0.13
323.867	0.15
324.232	0.16
324.597	0.25
324.962	0.23
325.327	0.31
325.691	0.32
326.056	0.3
326.421	0.28
326.785	0.28
327.15	0.29
327.514	0.3
327.879	0.29
328.243	0.22
328.608	0.23
328.972	0.23
329.337	0.15
329.701	0.14
330.065	0.1
330.429	0.07
330.794	0.1
331.158	0.1
331.522	0.14
331.886	0.16
332.25	0.19
332.614	0.14
332.978	0.2
333.342	0.23
333.705	0.21
334.069	0.2
334.433	0.07
334.797	0.09
335.16	0.06
335.524	0.03
335.887	0.02
336.251	0.06
336.614	0.12
336.978	0.18
337.341	0.13
337.705	0.11
338.068	0.16
338.431	0.17
338.794	0.19
339.158	0.17
339.521	0.21
339.884	0.29
340.247	0.27
340.61	0.26
340.973	0.2
341.336	0.19
341.699	0.27
342.062	0.15
342.424	0.11
342.787	0.06
343.15	0.07
343.512	0.19
343.875	0.16
344.238	0.23
344.6	0.34
344.963	0.41
345.325	0.39
345.688	0.28
346.05	0.23
346.412	0.3
346.775	0.3
347.137	0.3
347.499	0.33
347.861	0.3
348.223	0.31
348.585	0.29
348.947	0.24
349.309	0.28
349.671	0.26
350.033	0.33
350.395	0.31
350.757	0.22
351.118	0.35
351.48	0.34
351.842	0.35
352.203	0.33
352.565	0.27
352.927	0.22
353.288	0.07
353.65	-0.01
354.011	-0.09
354.372	-0.03
354.734	0.01
355.095	-0.03
355.456	0.01
355.817	-0.03
356.179	-0.05
356.54	-0.11
356.901	-0.15
357.262	-0.09
357.623	-0.06
357.984	-0.03
358.345	-0.06
358.705	-0.09
359.066	-0.14
359.427	-0.11
359.788	-0.02
360.148	-0.07
360.509	0.02
360.87	-0.02
361.23	-0.11
361.591	-0.07
361.951	0.02
362.312	0.15
362.672	0.25
363.032	0.28
363.393	0.24
363.753	0.21
364.113	0.23
364.473	0.18
364.833	0.25
365.193	0.27
365.553	0.37
365.913	0.4
366.273	0.32
366.633	0.3
366.993	0.26
367.353	0.3
367.713	0.28
368.072	0.27
368.432	0.3
368.792	0.23
369.151	0.24
369.511	0.18
369.87	0.19
370.23	0.22
370.589	0.24
370.949	0.21
371.308	0.14
371.667	0.01
372.027	-0.07
372.386	-0.15
372.745	-0.12
373.104	-0.09
373.463	-0.04
373.822	-0.07
374.181	-0.15
374.54	-0.2
374.899	-0.17
375.258	-0.01
375.617	-0.03
375.975	-0.01
376.334	0.01
376.693	-0
377.052	0.05
377.41	0.04
377.769	0.06
378.127	0.02
378.486	0.05
378.844	0.05
379.202	0.1
379.561	0.03
379.919	-0.01
380.277	0.04
380.636	0.08
380.994	0.18
381.352	0.2
381.71	0.24
382.068	0.19
382.426	0.12
382.784	0.15
383.142	0.16
383.5	0.14
383.857	0.12
384.215	-0.01
384.573	0.04
384.931	-0.01
385.288	-0.07
385.646	-0.08
386.003	-0.15
386.361	-0.22
386.718	-0.18
387.076	-0.06
387.433	-0.07
387.791	-0.06
388.148	-0.04
388.505	0.01
388.862	0.01
389.22	-0.02
389.577	-0.09
389.934	-0.1
390.291	-0.06
390.648	-0.11
391.005	-0.05
391.362	-0.03
391.718	-0.07
392.075	-0.02
392.432	-0
392.789	0.1
393.145	0.12
393.502	0.05
393.859	0
394.215	0.06
394.572	0.16
394.928	0.12
395.285	0.22
395.641	0.22
395.997	0.19
396.354	0.13
396.71	0.09
397.066	0.07
397.422	0
397.778	0.03
398.134	0.07
398.491	0.14
398.846	0.11
399.202	0.1
399.558	0.13
399.914	0.16
400.27	0.11
400.626	0.01
400.981	0
401.337	-0.05
401.693	-0.14
402.048	-0.11
402.404	-0.04
402.759	0.06
403.115	0.02
403.47	-0.04
403.826	0.08
404.181	0.01
404.536	0.03
404.892	-0.08
405.247	0.03
405.602	0.16
405.957	0.15
406.312	0.2
406.667	0.2
407.022	0.35
407.377	0.38
407.732	0.4
408.087	0.43
408.442	0.35
408.796	0.32
409.151	0.32
409.506	0.44
409.86	0.46
410.215	0.55
410.57	0.5
410.924	0.52
411.279	0.45
411.633	0.44
411.987	0.48
412.342	0.48
412.696	0.44
413.05	0.45
413.404	0.41
413.758	0.53
414.113	0.47
414.467	0.44
414.821	0.46
415.175	0.48
415.529	0.49
415.882	0.38
416.236	0.27
416.59	0.3
416.944	0.29
417.298	0.42
417.651	0.48
418.005	0.52
418.358	0.64
418.712	0.68
419.065	0.59
419.419	0.64
419.772	0.63
420.126	0.77
420.479	0.77
420.832	0.83
421.185	0.97
421.539	0.98
421.892	0.98
422.245	1.02
422.598	1.06
422.951	1.16
423.304	1.14
423.657	1.18
424.01	1.22
424.363	1.31
424.715	1.3
425.068	1.36
425.421	1.39
425.773	1.45
426.126	1.53
426.479	1.69
426.831	1.84
427.184	1.82
427.536	1.95
427.889	2.07
428.241	2.17
428.593	2.22
428.945	2.17
429.298	2.27
429.65	2.21
430.002	2.18
430.354	2.29
430.706	2.38
431.058	2.42
431.41	2.42
431.762	2.37
432.114	2.39
432.466	2.36
432.817	2.3
433.169	2.33
433.521	2.26
433.872	2.33
434.224	2.37
434.576	2.38
434.927	2.21
435.279	2.14
435.63	2.11
435.981	2.02
436.333	1.95
436.684	1.88
437.035	1.68
437.387	1.76
437.738	1.76
438.089	1.79
438.44	1.85
438.791	1.86
439.142	1.81
439.493	1.86
439.844	1.89
440.195	1.9
440.545	2
440.896	1.97
441.247	1.94
441.598	2.08
441.948	2.03
442.299	2.06
442.649	1.96
443	1.97
443.35	1.97
443.701	2.04
444.051	1.92
444.401	1.89
444.752	1.81
445.102	1.76
445.452	1.87
445.802	2.01
446.152	2.03
446.502	2.03
446.852	2
447.202	1.96
447.552	2.01
447.902	1.97
448.252	1.85
448.602	3.25
448.952	3.32
449.301	3.31
449.651	3.36
450.001	3.5
450.35	3.52
450.7	3.5
451.049	3.63
451.399	3.78
451.748	3.76
452.097	3.79
452.447	3.88
452.796	3.92
453.145	4.03
453.494	4.29
453.843	4.33
454.193	4.18
454.542	4.26
454.891	4.14
455.239	4.22
455.588	4.3
455.937	4.41
456.286	4.37
456.635	4.43
456.984	4.6
457.332	3.18
457.681	3.15
458.03	3.21
458.378	3.3
458.727	3.44
459.075	3.46
459.423	3.64
459.772	3.75
460.12	3.82
460.468	3.94
460.817	4.07
461.165	4.14
461.513	4.2
461.861	4.16
462.209	4.04
462.557	4.06
462.905	4.26
463.253	4.22
463.601	4.31
463.949	4.35
464.297	4.35
464.644	4.48
464.992	4.5
465.34	4.57
465.687	4.42
466.035	4.43
466.383	4.49
466.73	4.43
467.078	4.32
467.425	4.15
467.772	4.07
468.12	3.93
468.467	3.87
468.814	3.8
469.161	3.72
469.508	3.7
469.856	3.58
470.203	3.47
470.55	3.46
470.897	3.47
471.243	3.42
471.59	3.38
471.937	3.37
472.284	3.39
472.631	3.3
472.977	3.27
473.324	3.04
473.671	3.01
474.017	2.96
474.364	2.98
474.71	2.87
475.057	2.84
475.403	2.86
475.749	2.89
476.096	2.89
476.442	2.82
476.788	2.82
477.134	2.78
477.48	2.69
477.826	2.67
478.172	2.72
478.518	2.72
478.864	2.94
479.21	2.92
479.556	2.96
479.902	3.01
480.248	2.97
480.593	2.95
480.939	3
481.285	3.11
481.63	3.11
481.976	3.3
482.321	3.41
482.667	3.53
483.012	3.61
483.357	3.71
483.703	3.8
484.048	3.97
484.393	4.17
484.738	4.36
485.084	4.63
485.429	4.9
485.774	5.16
486.119	5.56
486.464	5.78
486.808	6.01
487.153	6.41
487.498	6.69
487.843	7.04
488.188	7.48
488.532	7.96
488.877	8.56
489.222	9.22
489.566	9.72
489.911	10.26
490.255	10.88
490.6	11.36
490.944	12
491.288	12.62
491.633	13.29
491.977	13.96
492.321	14.63
492.665	15.21
493.009	15.92
493.353	16.81
493.697	17.6
494.041	18.21
494.385	18.96
494.729	19.61
495.073	20.3
495.417	21
495.76	21.77
496.104	22.51
496.448	23.31
496.791	24.06
497.135	24.78
497.479	25.52
497.822	26.21
498.165	26.96
498.509	27.71
498.852	28.51
499.196	29.28
499.539	29.99
499.882	30.74
500.225	31.42
500.568	32.1
500.911	32.75
501.254	33.45
501.597	34.09
501.94	34.45
502.283	34.96
502.626	35.62
502.969	36.18
503.312	36.8
503.654	37.52
503.997	38.12
504.34	38.63
504.682	39.2
505.025	39.64
505.367	40.09
505.71	40.54
506.052	40.97
506.395	41.39
506.737	41.76
507.079	42.15
507.421	42.46
507.764	43.02
508.106	43.43
508.448	43.87
508.79	44.23
509.132	44.59
509.474	45.01
509.816	45.28
510.158	45.51
510.499	46.01
510.841	46.37
511.183	46.7
511.525	47.04
511.866	47.34
512.208	47.53
512.549	47.78
512.891	48.12
513.232	48.26
513.574	48.67
513.915	49.05
514.256	49.3
514.598	49.48
514.939	49.74
515.28	50.12
515.621	50.44
515.962	50.78
516.303	50.94
516.644	51.18
516.985	51.32
517.326	51.45
517.667	51.57
518.008	51.6
518.349	51.79
518.69	52
519.03	52.01
519.371	52.02
519.712	52.09
520.052	52.1
520.393	52.24
520.733	52.28
521.074	52.55
521.414	52.72
521.754	53
522.095	53.12
522.435	53.15
522.775	53.43
523.115	53.53
523.455	53.63
523.795	53.66
524.135	53.72
524.475	53.8
524.815	53.87
525.155	54.04
525.495	54.15
525.835	54.32
526.175	54.55
526.514	54.77
526.854	54.97
527.194	55.08
527.533	55.26
527.873	55.42
528.212	55.66
528.552	55.88
528.891	55.92
529.23	56.11
529.57	55.99
529.909	56.01
530.248	56.07
530.587	55.99
530.927	56.08
531.266	56.16
531.605	56.31
531.944	56.27
532.283	56.49
532.621	56.38
532.96	56.4
533.299	56.43
533.638	56.33
533.977	56.36
534.315	56.46
534.654	56.26
534.992	56.17
535.331	56.38
535.67	56.41
536.008	56.26
536.346	56.38
536.685	56.27
537.023	56.35
537.361	56.53
537.7	56.69
538.038	56.93
538.376	56.89
538.714	56.83
539.052	56.9
539.39	57.07
539.728	57.02
540.066	57.09
540.404	57.2
540.741	56.89
541.079	57.22
541.417	57.37
541.755	57.42
542.092	57.47
542.43	57.21
542.767	57.25
543.105	57.5
543.442	57.48
543.78	57.47
544.117	57.58
544.454	57.73
544.792	57.61
545.129	57.66
545.466	57.63
545.803	57.51
546.14	57.41
546.477	57.23
546.814	57.3
547.151	57.33
547.488	57.35
547.825	57.22
548.162	57.41
548.499	57.29
548.835	57.39
549.172	57.47
549.509	57.39
549.845	57.48
550.182	57.27
550.518	57.38
550.855	57.82
551.191	57.63
551.528	57.53
551.864	57.72
552.2	57.5
552.537	57.54
552.873	57.65
553.209	57.85
553.545	57.81
553.881	57.91
554.217	57.99
554.553	58.05
554.889	58.31
555.225	58.18
555.561	58.22
555.896	58.3
556.232	58.39
556.568	58.23
556.903	58.49
557.239	58.63
557.575	58.87
557.91	58.86
558.245	58.67
558.581	58.86
558.916	58.82
559.252	58.78
559.587	58.98
559.922	59.1
560.257	59.16
560.592	59.29
560.928	59.3
561.263	59.41
561.598	59.35
561.933	59.34
562.267	59.54
562.602	59.46
562.937	59.54
563.272	59.62
563.607	59.56
563.941	59.79
564.276	59.69
564.611	59.58
564.945	59.63
565.28	59.45
565.614	59.33
565.949	59.23
566.283	59.25
566.617	59.43
566.951	59.58
567.286	59.65
567.62	59.42
567.954	59.36
568.288	59.5
568.622	59.29
568.956	59.35
569.29	59.43
569.624	59.37
569.958	59.43
570.292	59.46
570.626	59.35
570.959	59.38
571.293	59.52
571.627	59.36
571.96	59.45
572.294	59.17
572.627	59.22
572.961	59.3
573.294	59.32
573.627	59.34
573.961	59.35
574.294	59.36
574.627	59.34
574.961	59.19
575.294	58.97
575.627	58.84
575.96	58.87
576.293	58.88
576.626	58.73
576.959	58.83
577.292	58.83
577.624	58.8
577.957	58.86
578.29	58.83
578.623	58.84
578.955	58.72
579.288	58.72
579.62	58.4
579.953	58.46
580.285	58.64
580.618	58.79
580.95	58.84
581.282	58.83
581.615	58.88
581.947	58.82
582.279	58.8
582.611	58.82
582.943	58.94
583.275	59.04
583.607	59.16
583.939	59.31
584.271	59.39
584.603	59.38
584.935	59.35
585.267	59.33
585.598	59.18
585.93	59.06
586.262	59.09
586.593	58.96
586.925	58.98
587.256	58.97
587.588	58.89
587.919	59.07
588.25	59.02
588.582	58.78
588.913	58.86
589.244	58.74
589.575	58.74
589.907	58.58
590.238	58.71
590.569	58.77
590.9	58.73
591.231	58.62
591.562	58.55
591.892	58.64
592.223	58.68
592.554	58.73
592.885	58.76
593.215	58.88
593.546	58.93
593.877	58.92
594.207	59.1
594.538	59.04
594.868	59.25
595.198	59.21
595.529	59.38
595.859	59.47
596.189	59.56
596.52	59.67
596.85	59.64
597.18	59.56
597.51	59.56
597.84	59.54
598.17	59.6
598.5	59.7
598.83	59.6
599.16	59.8
599.489	59.92
599.819	59.83
600.149	59.79
600.479	59.56
600.808	59.42
601.138	59.51
601.467	59.5
601.797	59.43
602.126	59.57
602.456	59.45
602.785	59.43
603.114	59.37
603.443	59.35
603.773	59.31
604.102	59.2
604.431	59.17
604.76	59.04
605.089	59.07
605.418	59
605.747	59.09
606.076	59.06
606.405	59.06
606.733	59.08
607.062	59.14
607.391	59
607.72	58.87
608.048	59.06
608.377	58.98
608.705	59.13
609.034	59.06
609.362	59.01
609.69	59.11
610.019	59.13
610.347	59
610.675	59.17
611.004	59.2
611.332	59.21
611.66	59.37
611.988	59.21
612.316	59.26
612.644	59.25
612.972	59.17
613.3	59.28
613.627	59.4
613.955	59.46
614.283	59.55
614.611	59.58
614.938	59.31
615.266	59.06
615.593	58.97
615.921	58.63
616.248	58.54
616.576	58.72
616.903	58.54
617.23	58.85
617.558	58.86
617.885	58.73
618.212	58.92
618.539	58.96
618.866	58.59
619.193	58.43
619.52	58.31
619.847	58.11
620.174	58.08
620.501	58.19
620.828	58.11
621.155	58.22
621.481	57.67
621.808	57.46
622.135	57.49
622.461	57.59
622.788	57.7
623.114	58.04
623.441	58.52
623.767	58.62
624.093	59.1
624.42	59.2
624.746	59.21
625.072	59.62
625.398	59.55
625.725	59.47
626.051	59.48
626.377	59.5
626.703	59.47
627.029	59.42
627.354	59.34
627.68	59.43
628.006	59.66
628.332	59.78
628.658	59.48
628.983	59.83
629.309	59.78
629.634	60.56
629.96	60.81
630.285	60.43
630.611	60.15
630.936	59.84
631.262	59.52
631.587	59.73
631.912	59.89
632.237	59.83
632.562	59.52
632.887	59.8
633.213	59.64
633.538	59.98
633.863	59.5
634.187	59.66
634.512	59.46
634.837	59.68
635.162	59.82
635.487	59.98
635.811	60.1
636.136	60.23
636.461	60.25
636.785	60.68
637.11	60.35
637.434	60.29
637.758	60.33
638.083	60.47
638.407	61.01
638.731	61.14
639.056	60.74
639.38	60.46
639.704	59.87
640.028	60.35
640.352	60.01
640.676	60.4
641	59.78
641.324	59.69
641.648	59.42
641.972	60.22
642.295	60.17
642.619	60.47
642.943	60.79
643.266	60.82
643.59	60.53
643.913	60.33
644.237	59.94
644.56	59.92
644.884	59.83
645.207	59.85
645.53	60
645.854	60.12
646.177	59.98
646.5	59.56
646.823	59.3
647.146	59.39
647.469	59.38
647.792	59.6
648.115	59.03
648.438	59.37
648.761	58.92
649.084	58.38
649.406	57.56
649.729	57.36
650.052	57.31
650.374	57.33
650.697	57.22
651.019	57.03
651.342	57.06
651.664	57.2
651.987	57.24
652.309	57.1
652.631	57.23
652.953	57.17
653.276	57.2
653.598	57.05
653.92	56.83
654.242	56.73
654.564	56.78
654.886	56.83
655.208	56.93
655.53	57.07
655.851	57.05
656.173	57.01
656.495	57.14
656.816	57.16
657.138	57.66
657.46	58.31
657.781	58.79
658.103	58.76
658.424	58.49
658.746	59.27
659.067	59.35
659.388	59.28
659.709	59.31
660.031	58.98
660.352	59.83
660.673	59.14
660.994	58.82
661.315	59.13
661.636	59.48
661.957	60.27
662.278	61.07
662.599	60.58
662.919	60.7
663.24	61.14
663.561	61.05
663.881	61.17
