Data from T2__Reflection__3__23-54-47-869.txt Node

Date: Fri Jun 04 23:54:47 CEST 2021
User: mabdelazizm
Spectrometer: FLMS18565
Trigger mode: 0
Integration Time (sec): 2.000000E0
Scans to average: 1
Electric dark correction enabled: true
Nonlinearity correction enabled: false
Boxcar width: 12
XAxis mode: Wavelengths
Number of Pixels in Spectrum: 2048
>>>>>Begin Spectral Data<<<<<
179.071	-16.44
179.452	-57.8
179.833	-72.62
180.214	-62.03
180.595	-296.3
180.977	-1423.53
181.358	-361.06
181.739	-280
182.12	-97.53
182.501	-81.12
182.882	-80
183.262	-97.37
183.643	202.74
184.024	66.43
184.405	25.65
184.786	-10.83
185.166	9.99
185.547	31.39
185.927	47.7
186.308	41.47
186.689	46.57
187.069	47.57
187.449	45.26
187.83	40.89
188.21	34.94
188.59	34.16
188.971	27.46
189.351	25.36
189.731	26.15
190.111	20.46
190.491	17.22
190.871	17.85
191.251	20.24
191.631	23.38
192.011	17.94
192.391	21.6
192.771	26.53
193.151	30.51
193.531	23.29
193.91	19.2
194.29	21.14
194.67	15.16
195.049	10.43
195.429	5.8
195.808	7.72
196.188	7
196.567	8.16
196.946	7
197.326	6.23
197.705	5.77
198.084	7.95
198.464	9.62
198.843	10.15
199.222	11.37
199.601	11.87
199.98	11.71
200.359	11.8
200.738	12.16
201.117	9.18
201.496	11.46
201.875	7.74
202.254	5.63
202.632	3.54
203.011	7.01
203.39	9.28
203.768	6.9
204.147	11.56
204.525	11.26
204.904	11.2
205.282	9.86
205.661	8.68
206.039	6.83
206.418	6.37
206.796	8.29
207.174	7.7
207.552	5.95
207.931	5.63
208.309	6.23
208.687	3.79
209.065	3.51
209.443	2.64
209.821	2.25
210.199	0
210.577	3.19
210.954	4.96
211.332	4.95
211.71	4.78
212.088	6.67
212.465	5.4
212.843	6.43
213.221	10.11
213.598	7.33
213.976	8.62
214.353	8.37
214.731	8.93
215.108	10.06
215.485	11.51
215.863	9.97
216.24	10.47
216.617	10.59
216.994	11.81
217.371	10.49
217.749	10.59
218.126	11.66
218.503	9.84
218.88	8.61
219.256	9.56
219.633	9.93
220.01	8.08
220.387	7.29
220.764	7.55
221.14	6.39
221.517	5.95
221.894	5.32
222.27	4.8
222.647	3.6
223.023	4.06
223.4	3.2
223.776	3.05
224.153	2.39
224.529	2.09
224.905	1.39
225.282	1.84
225.658	0.35
226.034	0.45
226.41	0.56
226.786	1.35
227.162	0.45
227.538	0.52
227.914	0.54
228.29	0.86
228.666	0.17
229.042	-0.04
229.418	0.19
229.793	0.25
230.169	0.4
230.545	0.9
230.92	0.68
231.296	0.76
231.672	0.87
232.047	0.95
232.422	0.74
232.798	0.98
233.173	0.9
233.549	1.1
233.924	1.04
234.299	1.1
234.674	1.25
235.05	1.59
235.425	1.56
235.8	1.46
236.175	1.38
236.55	1.54
236.925	1.58
237.3	1.62
237.675	1.68
238.049	1.77
238.424	1.79
238.799	1.7
239.174	1.77
239.548	1.74
239.923	1.66
240.297	1.57
240.672	1.73
241.046	1.61
241.421	1.58
241.795	1.61
242.17	1.57
242.544	1.62
242.918	1.43
243.293	1.44
243.667	1.4
244.041	1.33
244.415	1.39
244.789	1.33
245.163	1.34
245.537	1.38
245.911	1.36
246.285	1.26
246.659	1.27
247.033	1.29
247.406	1.26
247.78	1.28
248.154	1.42
248.528	1.38
248.901	1.45
249.275	1.45
249.648	1.47
250.022	1.32
250.395	1.39
250.769	1.36
251.142	1.42
251.515	1.47
251.888	1.47
252.262	1.56
252.635	1.53
253.008	1.5
253.381	1.48
253.754	1.37
254.127	1.4
254.5	1.39
254.873	1.33
255.246	1.33
255.619	1.36
255.992	1.35
256.364	1.33
256.737	1.34
257.11	1.36
257.483	1.3
257.855	1.24
258.228	1.19
258.6	1.21
258.973	1.32
259.345	1.43
259.718	1.37
260.09	1.39
260.462	1.3
260.834	1.27
261.207	1.21
261.579	1.18
261.951	1.19
262.323	1.23
262.695	1.32
263.067	1.34
263.439	1.36
263.811	1.36
264.183	1.38
264.555	1.4
264.927	1.39
265.298	1.39
265.67	1.37
266.042	1.44
266.413	1.41
266.785	1.38
267.156	1.41
267.528	1.42
267.899	1.37
268.271	1.26
268.642	1.2
269.013	1.17
269.385	1.14
269.756	1.15
270.127	1.15
270.498	1.2
270.87	1.24
271.241	1.26
271.612	1.27
271.983	1.23
272.354	1.21
272.724	1.18
273.095	1.16
273.466	1.14
273.837	1.09
274.208	1.12
274.578	1.11
274.949	1.07
275.32	1.02
275.69	1.03
276.061	1.07
276.431	1.08
276.802	1.06
277.172	1.05
277.542	1.06
277.913	1.05
278.283	1.11
278.653	1.15
279.023	1.18
279.394	1.17
279.764	1.13
280.134	1.07
280.504	1.09
280.874	1.05
281.244	1.01
281.614	1
281.983	1.02
282.353	0.97
282.723	0.97
283.093	0.98
283.462	0.91
283.832	0.94
284.202	0.98
284.571	0.9
284.941	0.87
285.31	0.88
285.68	0.87
286.049	0.84
286.418	0.89
286.788	0.88
287.157	0.85
287.526	0.82
287.895	0.8
288.264	0.76
288.633	0.79
289.002	0.8
289.371	0.86
289.74	0.83
290.109	0.87
290.478	0.89
290.847	0.89
291.216	0.89
291.585	0.93
291.953	0.91
292.322	0.95
292.691	1
293.059	0.94
293.428	0.94
293.796	1
294.165	0.96
294.533	0.9
294.901	0.9
295.27	0.87
295.638	0.81
296.006	0.83
296.374	0.87
296.743	0.85
297.111	0.77
297.479	0.77
297.847	0.7
298.215	0.7
298.583	0.62
298.95	0.63
299.318	0.61
299.686	0.6
300.054	0.58
300.422	0.55
300.789	0.61
301.157	0.59
301.525	0.55
301.892	0.51
302.26	0.52
302.627	0.5
302.994	0.47
303.362	0.51
303.729	0.55
304.097	0.55
304.464	0.64
304.831	0.68
305.198	0.63
305.565	0.67
305.932	0.63
306.299	0.66
306.666	0.69
307.033	0.69
307.4	0.72
307.767	0.78
308.134	0.74
308.501	0.72
308.867	0.76
309.234	0.79
309.601	0.81
309.967	0.73
310.334	0.76
310.701	0.74
311.067	0.75
311.433	0.79
311.8	0.76
312.166	0.77
312.533	0.78
312.899	0.74
313.265	0.76
313.631	0.67
313.997	0.66
314.363	0.68
314.729	0.61
315.096	0.62
315.461	0.63
315.827	0.6
316.193	0.59
316.559	0.55
316.925	0.56
317.291	0.6
317.656	0.6
318.022	0.57
318.388	0.55
318.753	0.54
319.119	0.56
319.484	0.54
319.85	0.56
320.215	0.55
320.581	0.51
320.946	0.53
321.311	0.56
321.676	0.5
322.042	0.51
322.407	0.46
322.772	0.48
323.137	0.43
323.502	0.43
323.867	0.44
324.232	0.43
324.597	0.47
324.962	0.54
325.327	0.54
325.691	0.59
326.056	0.58
326.421	0.52
326.785	0.48
327.15	0.47
327.514	0.46
327.879	0.43
328.243	0.4
328.608	0.44
328.972	0.38
329.337	0.37
329.701	0.39
330.065	0.34
330.429	0.3
330.794	0.31
331.158	0.31
331.522	0.29
331.886	0.34
332.25	0.35
332.614	0.37
332.978	0.35
333.342	0.39
333.705	0.34
334.069	0.3
334.433	0.29
334.797	0.29
335.16	0.3
335.524	0.29
335.887	0.3
336.251	0.32
336.614	0.35
336.978	0.3
337.341	0.35
337.705	0.26
338.068	0.32
338.431	0.35
338.794	0.36
339.158	0.45
339.521	0.47
339.884	0.47
340.247	0.42
340.61	0.39
340.973	0.32
341.336	0.34
341.699	0.31
342.062	0.36
342.424	0.36
342.787	0.34
343.15	0.25
343.512	0.25
343.875	0.21
344.238	0.18
344.6	0.2
344.963	0.19
345.325	0.14
345.688	0.14
346.05	0.18
346.412	0.16
346.775	0.2
347.137	0.16
347.499	0.13
347.861	0.13
348.223	0.07
348.585	0.09
348.947	0.12
349.309	0.11
349.671	0.15
350.033	0.21
350.395	0.17
350.757	0.14
351.118	0.1
351.48	0.06
351.842	0.08
352.203	0.1
352.565	0.09
352.927	0.11
353.288	0.11
353.65	0.04
354.011	0.05
354.372	0.14
354.734	0.13
355.095	0.16
355.456	0.09
355.817	0.04
356.179	0.1
356.54	0.08
356.901	0.03
357.262	0.1
357.623	0.06
357.984	0.05
358.345	0.15
358.705	0.17
359.066	0.13
359.427	0.16
359.788	0.2
360.148	0.2
360.509	0.28
360.87	0.32
361.23	0.44
361.591	0.46
361.951	0.44
362.312	0.43
362.672	0.5
363.032	0.52
363.393	0.48
363.753	0.47
364.113	0.43
364.473	0.49
364.833	0.54
365.193	0.49
365.553	0.52
365.913	0.5
366.273	0.47
366.633	0.45
366.993	0.43
367.353	0.37
367.713	0.4
368.072	0.44
368.432	0.51
368.792	0.48
369.151	0.46
369.511	0.39
369.87	0.33
370.23	0.27
370.589	0.24
370.949	0.2
371.308	0.18
371.667	0.15
372.027	0.16
372.386	0.15
372.745	0.13
373.104	0.16
373.463	0.18
373.822	0.19
374.181	0.17
374.54	0.14
374.899	0.16
375.258	0.17
375.617	0.17
375.975	0.15
376.334	0.14
376.693	0.09
377.052	0.1
377.41	-0.01
377.769	0.01
378.127	0
378.486	-0
378.844	0.04
379.202	-0
379.561	0.04
379.919	0.05
380.277	0.06
380.636	0.1
380.994	0.04
381.352	-0.04
381.71	-0.01
382.068	0.01
382.426	-0.01
382.784	-0.05
383.142	0.04
383.5	0.02
383.857	0.04
384.215	-0.03
384.573	0.01
384.931	0.01
385.288	-0.01
385.646	-0.01
386.003	-0.03
386.361	0
386.718	-0.03
387.076	0.05
387.433	0.06
387.791	0.04
388.148	0.03
388.505	-0.04
388.862	-0.02
389.22	0.05
389.577	0.01
389.934	-0.01
390.291	0.01
390.648	0.03
391.005	-0.01
391.362	0.05
391.718	0.12
392.075	0.11
392.432	0.05
392.789	0.08
393.145	0.1
393.502	0.09
393.859	0.08
394.215	0.11
394.572	0.12
394.928	0.06
395.285	0.1
395.641	0.12
395.997	0.1
396.354	0.1
396.71	0.17
397.066	0.21
397.422	0.25
397.778	0.24
398.134	0.2
398.491	0.21
398.846	0.29
399.202	0.29
399.558	0.23
399.914	0.2
400.27	0.15
400.626	0.12
400.981	0.05
401.337	0.16
401.693	0.11
402.048	0.11
402.404	0.12
402.759	0.13
403.115	0.16
403.47	0.22
403.826	0.28
404.181	0.23
404.536	0.16
404.892	0.16
405.247	0.19
405.602	0.06
405.957	0.08
406.312	0.1
406.667	0.11
407.022	0.05
407.377	0.01
407.732	-0.01
408.087	0.02
408.442	0.11
408.796	0.15
409.151	0.18
409.506	0.1
409.86	0.17
410.215	0.19
410.57	0.24
410.924	0.28
411.279	0.28
411.633	0.33
411.987	0.33
412.342	0.28
412.696	0.27
413.05	0.34
413.404	0.41
413.758	0.43
414.113	0.39
414.467	0.5
414.821	0.48
415.175	0.49
415.529	0.55
415.882	0.62
416.236	0.63
416.59	0.62
416.944	0.61
417.298	0.54
417.651	0.53
418.005	0.57
418.358	0.7
418.712	0.7
419.065	0.65
419.419	0.72
419.772	0.77
420.126	0.74
420.479	0.78
420.832	0.8
421.185	0.89
421.539	0.89
421.892	0.86
422.245	0.83
422.598	0.84
422.951	0.9
423.304	0.94
423.657	0.96
424.01	0.9
424.363	0.9
424.715	0.95
425.068	1
425.421	1.06
425.773	1.11
426.126	1.19
426.479	1.26
426.831	1.23
427.184	1.24
427.536	1.28
427.889	1.28
428.241	1.21
428.593	1.14
428.945	1.21
429.298	1.12
429.65	1.11
430.002	1.01
430.354	1.01
430.706	1.01
431.058	1.11
431.41	1.06
431.762	1.07
432.114	1
432.466	0.99
432.817	1.04
433.169	1.12
433.521	1.11
433.872	1.17
434.224	1.15
434.576	1.17
434.927	1.2
435.279	1.22
435.63	1.15
435.981	1.15
436.333	1.12
436.684	1.13
437.035	1.17
437.387	1.21
437.738	1.13
438.089	1.22
438.44	1.29
438.791	1.32
439.142	1.39
439.493	1.36
439.844	1.24
440.195	1.32
440.545	1.34
440.896	1.43
441.247	1.39
441.598	1.33
441.948	1.27
442.299	1.27
442.649	1.14
443	1.08
443.35	1.03
443.701	0.93
444.051	0.93
444.401	1.01
444.752	1.01
445.102	0.99
445.452	0.98
445.802	1
446.152	1.01
446.502	1.11
446.852	1.13
447.202	0.99
447.552	0.97
447.902	0.96
448.252	1.05
448.602	1.23
448.952	1.17
449.301	1.18
449.651	1.15
450.001	1.19
450.35	1.33
450.7	1.32
451.049	1.23
451.399	1.3
451.748	1.41
452.097	1.48
452.447	1.51
452.796	1.48
453.145	1.57
453.494	1.58
453.843	1.56
454.193	1.6
454.542	1.67
454.891	1.64
455.239	1.62
455.588	1.58
455.937	1.73
456.286	1.82
456.635	1.84
456.984	1.82
457.332	1.74
457.681	1.77
458.03	1.79
458.378	1.84
458.727	1.94
459.075	1.88
459.423	1.93
459.772	2.01
460.12	2.09
460.468	2.08
460.817	2.11
461.165	2.14
461.513	2.13
461.861	2.13
462.209	2.13
462.557	2.15
462.905	2.17
463.253	2.16
463.601	2.25
463.949	2.34
464.297	2.33
464.644	2.27
464.992	2.19
465.34	2.17
465.687	2.21
466.035	2.19
466.383	2.17
466.73	2.12
467.078	2.07
467.425	2.01
467.772	2.01
468.12	1.89
468.467	1.93
468.814	1.92
469.161	1.87
469.508	1.88
469.856	1.85
470.203	1.83
470.55	1.73
470.897	1.71
471.243	1.78
471.59	1.73
471.937	1.64
472.284	1.64
472.631	1.58
472.977	1.58
473.324	1.67
473.671	1.63
474.017	1.63
474.364	1.55
474.71	1.58
475.057	1.57
475.403	1.56
475.749	1.52
476.096	1.5
476.442	1.54
476.788	1.55
477.134	1.57
477.48	1.56
477.826	1.55
478.172	1.57
478.518	1.55
478.864	1.59
479.21	1.63
479.556	1.58
479.902	1.54
480.248	1.57
480.593	1.54
480.939	1.51
481.285	1.57
481.63	1.59
481.976	1.55
482.321	1.59
482.667	1.63
483.012	1.71
483.357	1.73
483.703	1.8
484.048	1.84
484.393	1.96
484.738	2.07
485.084	2.15
485.429	2.31
485.774	2.41
486.119	2.52
486.464	2.7
486.808	2.79
487.153	2.99
487.498	3.16
487.843	3.32
488.188	3.63
488.532	3.87
488.877	4.17
489.222	4.5
489.566	4.84
489.911	5.13
490.255	5.51
490.6	5.85
490.944	6.32
491.288	6.7
491.633	7.09
491.977	7.54
492.321	8
492.665	8.52
493.009	8.99
493.353	9.47
493.697	9.94
494.041	10.41
494.385	10.92
494.729	11.5
495.073	12.02
495.417	12.69
495.76	13.39
496.104	14
496.448	14.6
496.791	15.15
497.135	15.86
497.479	16.5
497.822	17.13
498.165	17.79
498.509	18.47
498.852	19.12
499.196	19.97
499.539	20.56
499.882	21.24
500.225	21.92
500.568	22.51
500.911	23.18
501.254	23.86
501.597	24.53
501.94	25.13
502.283	25.73
502.626	26.36
502.969	26.95
503.312	27.51
503.654	28.2
503.997	28.77
504.34	29.37
504.682	29.95
505.025	30.6
505.367	31.23
505.71	31.74
506.052	32.27
506.395	32.83
506.737	33.25
507.079	33.73
507.421	34.15
507.764	34.56
508.106	35.05
508.448	35.53
508.79	35.84
509.132	36.36
509.474	36.76
509.816	37.1
510.158	37.41
510.499	37.93
510.841	38.47
511.183	38.9
511.525	39.3
511.866	39.69
512.208	39.89
512.549	40.1
512.891	40.3
513.232	40.52
513.574	40.7
513.915	40.99
514.256	41.24
514.598	41.5
514.939	41.74
515.28	42.05
515.621	42.29
515.962	42.58
516.303	42.77
516.644	43.05
516.985	43.27
517.326	43.66
517.667	43.89
518.008	44.15
518.349	44.31
518.69	44.59
519.03	44.83
519.371	44.92
519.712	45.12
520.052	45.24
520.393	45.49
520.733	45.75
521.074	45.96
521.414	46.17
521.754	46.56
522.095	46.89
522.435	47.07
522.775	47.32
523.115	47.53
523.455	47.68
523.795	47.87
524.135	47.98
524.475	48.3
524.815	48.53
525.155	48.55
525.495	48.7
525.835	48.72
526.175	48.72
526.514	48.78
526.854	48.9
527.194	48.88
527.533	48.77
527.873	48.86
528.212	48.96
528.552	49.17
528.891	49.11
529.23	49.21
529.57	49.38
529.909	49.46
530.248	49.44
530.587	49.47
530.927	49.4
531.266	49.37
531.605	49.4
531.944	49.65
532.283	49.8
532.621	49.92
532.96	49.93
533.299	49.96
533.638	50.2
533.977	50.11
534.315	50.19
534.654	50.27
534.992	50.37
535.331	50.41
535.67	50.65
536.008	50.8
536.346	50.83
536.685	50.94
537.023	50.98
537.361	51.19
537.7	51.21
538.038	51.29
538.376	51.31
538.714	51.46
539.052	51.58
539.39	51.75
539.728	51.91
540.066	51.9
540.404	51.81
540.741	51.85
541.079	51.91
541.417	52.01
541.755	52.04
542.092	51.94
542.43	52.11
542.767	52.21
543.105	52.31
543.442	52.27
543.78	52.28
544.117	52.25
544.454	52.21
544.792	52.29
545.129	52.34
545.466	52.3
545.803	52.36
546.14	52.41
546.477	52.33
546.814	52.47
547.151	52.39
547.488	52.36
547.825	52.4
548.162	52.28
548.499	52.3
548.835	52.38
549.172	52.41
549.509	52.46
549.845	52.29
550.182	52.35
550.518	52.42
550.855	52.5
551.191	52.54
551.528	52.51
551.864	52.65
552.2	52.92
552.537	52.93
552.873	53.02
553.209	52.95
553.545	52.98
553.881	52.99
554.217	52.97
554.553	53.11
554.889	53.13
555.225	53.21
555.561	53.3
555.896	53.32
556.232	53.3
556.568	53.39
556.903	53.43
557.239	53.41
557.575	53.46
557.91	53.53
558.245	53.83
558.581	53.89
558.916	53.96
559.252	53.93
559.587	53.99
559.922	54.05
560.257	54.06
560.592	53.77
560.928	53.72
561.263	53.77
561.598	53.77
561.933	53.84
562.267	53.84
562.602	53.77
562.937	53.8
563.272	53.99
563.607	53.99
563.941	54.05
564.276	54.17
564.611	54.44
564.945	54.46
565.28	54.76
565.614	54.89
565.949	54.79
566.283	54.83
566.617	54.74
566.951	54.77
567.286	54.72
567.62	54.89
567.954	55.05
568.288	55.02
568.622	55.1
568.956	55.21
569.29	55.16
569.624	55.12
569.958	55.29
570.292	55.17
570.626	55.27
570.959	55.28
571.293	55.28
571.627	55.31
571.96	55.21
572.294	55.05
572.627	55
572.961	54.91
573.294	54.96
573.627	54.85
573.961	54.83
574.294	54.96
574.627	54.93
574.961	54.98
575.294	55.07
575.627	55.12
575.96	55.07
576.293	54.99
576.626	55.08
576.959	55.01
577.292	55.03
577.624	55.15
577.957	55.21
578.29	55.12
578.623	55.11
578.955	55.09
579.288	55.15
579.62	55.08
579.953	55.07
580.285	55.2
580.618	55.44
580.95	55.54
581.282	55.48
581.615	55.55
581.947	55.53
582.279	55.54
582.611	55.46
582.943	55.61
583.275	55.57
583.607	55.51
583.939	55.47
584.271	55.44
584.603	55.5
584.935	55.45
585.267	55.49
585.598	55.6
585.93	55.63
586.262	55.66
586.593	55.77
586.925	55.86
587.256	55.94
587.588	55.93
587.919	56.01
588.25	56.02
588.582	56.02
588.913	55.91
589.244	55.83
589.575	55.94
589.907	55.98
590.238	56.05
590.569	56.16
590.9	56.2
591.231	56.21
591.562	56.34
591.892	56.49
592.223	56.55
592.554	56.51
592.885	56.45
593.215	56.43
593.546	56.36
593.877	56.33
594.207	56.38
594.538	56.31
594.868	56.25
595.198	56.11
595.529	56.02
595.859	56.08
596.189	56.12
596.52	56.14
596.85	56.14
597.18	56.05
597.51	56.11
597.84	56.14
598.17	55.94
598.5	56.05
598.83	55.99
599.16	55.9
599.489	55.77
599.819	55.64
600.149	55.53
600.479	55.59
600.808	55.63
601.138	55.54
601.467	55.55
601.797	55.58
602.126	55.57
602.456	55.54
602.785	55.65
603.114	55.71
603.443	55.87
603.773	55.87
604.102	55.86
604.431	55.82
604.76	55.88
605.089	55.79
605.418	55.75
605.747	55.78
606.076	55.83
606.405	55.97
606.733	55.92
607.062	55.97
607.391	56.05
607.72	56.15
608.048	56.28
608.377	56.11
608.705	56.16
609.034	56.2
609.362	56.3
609.69	56.51
610.019	56.67
610.347	56.63
610.675	56.43
611.004	56.33
611.332	56.17
611.66	56.23
611.988	56.35
612.316	56.52
612.644	56.38
612.972	56.23
613.3	56.25
613.627	56.34
613.955	56.16
614.283	56.04
614.611	56.1
614.938	55.99
615.266	55.91
615.593	55.94
615.921	55.9
616.248	56
616.576	56.19
616.903	56.13
617.23	56.23
617.558	56.35
617.885	56.17
618.212	56.09
618.539	56.2
618.866	56.28
619.193	56.39
619.52	56.65
619.847	56.65
620.174	56.59
620.501	56.27
620.828	56.58
621.155	56.7
621.481	56.66
621.808	56.78
622.135	56.86
622.461	57.07
622.788	56.79
623.114	56.96
623.441	56.94
623.767	56.95
624.093	56.86
624.42	56.82
624.746	56.88
625.072	56.99
625.398	57.04
625.725	57.01
626.051	57.1
626.377	56.98
626.703	56.86
627.029	57.22
627.354	57.36
627.68	57.02
628.006	57.15
628.332	57.31
628.658	57.09
628.983	56.93
629.309	56.82
629.634	56.93
629.96	56.94
630.285	56.73
630.611	56.41
630.936	56.79
631.262	56.53
631.587	56.12
631.912	55.88
632.237	55.78
632.562	55.49
632.887	55.45
633.213	55.18
633.538	55.07
633.863	54.97
634.187	54.63
634.512	54.76
634.837	54.69
635.162	54.67
635.487	54.55
635.811	54.67
636.136	54.33
636.461	53.72
636.785	53.66
637.11	53.82
637.434	53.99
637.758	53.76
638.083	53.83
638.407	53.9
638.731	54.26
639.056	54.45
639.38	54.49
639.704	55.41
640.028	55.89
640.352	56.06
640.676	56.5
641	56.28
641.324	56.51
641.648	56.54
641.972	56.79
642.295	56.88
642.619	56.59
642.943	56.61
643.266	56.02
643.59	55.51
643.913	55.75
644.237	55.8
644.56	56.05
644.884	56.51
645.207	56.51
645.53	56.78
645.854	56.96
646.177	56.8
646.5	57.01
646.823	57
647.146	56.62
647.469	56.35
647.792	56.25
648.115	55.85
648.438	55.66
648.761	55.56
649.084	56.17
649.406	56.39
649.729	56.14
650.052	55.99
650.374	55.9
650.697	56.09
651.019	56.09
651.342	56.24
651.664	56.29
651.987	56.27
652.309	56.3
652.631	56.26
652.953	56.38
653.276	56.32
653.598	56.16
653.92	56.19
654.242	56.29
654.564	56.38
654.886	56.25
655.208	56.28
655.53	56.4
655.851	56.35
656.173	56.55
656.495	56.83
656.816	56.88
657.138	56.75
657.46	56.6
657.781	57.43
658.103	58.26
658.424	59.09
658.746	58.85
659.067	58.82
659.388	58.62
659.709	58.67
660.031	58.41
660.352	58.22
660.673	59.05
660.994	58.59
661.315	58.54
661.636	58.4
661.957	58.49
662.278	58.33
662.599	57.99
662.919	58.05
663.24	58.12
663.561	58.2
663.881	58.06
664.202	58.01
664.523	56.94
