Data from T2__Reflection__15__23-27-09-950.txt Node

Date: Tue Jun 01 23:27:09 CEST 2021
User: mabdelazizm
Spectrometer: FLMS18565
Trigger mode: 0
Integration Time (sec): 2.000000E0
Scans to average: 1
Electric dark correction enabled: true
Nonlinearity correction enabled: false
Boxcar width: 12
XAxis mode: Wavelengths
Number of Pixels in Spectrum: 2048
>>>>>Begin Spectral Data<<<<<
179.071	115.97
179.452	119.19
179.833	121.87
180.214	126.24
180.595	102.64
180.977	113.72
181.358	119.37
181.739	107.65
182.12	111.82
182.501	94.62
182.882	84.41
183.262	97.88
183.643	347.12
184.024	-278.05
184.405	-100.42
184.786	-20.2
185.166	1.14
185.547	-1.98
185.927	14.37
186.308	18.88
186.689	21.45
187.069	21.97
187.449	16.58
187.83	12.23
188.21	9.47
188.59	13.67
188.971	12.8
189.351	13.72
189.731	12.03
190.111	9.48
190.491	10.77
190.871	7.77
191.251	8.63
191.631	7.99
192.011	8.16
192.391	7.94
192.771	6.75
193.151	6.33
193.531	7.3
193.91	8.6
194.29	9.95
194.67	9.7
195.049	10.57
195.429	8.56
195.808	7.68
196.188	6.93
196.567	7.72
196.946	8.12
197.326	7.55
197.705	8.95
198.084	8.82
198.464	8.22
198.843	8.67
199.222	8.46
199.601	8.59
199.98	6.74
200.359	6.24
200.738	6.34
201.117	7.04
201.496	6.85
201.875	7.4
202.254	7.48
202.632	7.27
203.011	7.69
203.39	6.44
203.768	4.43
204.147	5.16
204.525	4.58
204.904	4.58
205.282	5.25
205.661	5.11
206.039	4.71
206.418	5.18
206.796	5.51
207.174	4.08
207.552	3.5
207.931	2.88
208.309	2.29
208.687	1.97
209.065	2.04
209.443	2.5
209.821	2.89
210.199	2.76
210.577	1.9
210.954	2.12
211.332	1.66
211.71	1.96
212.088	1.78
212.465	1.32
212.843	2.43
213.221	2.57
213.598	2.24
213.976	2.49
214.353	2.56
214.731	1.95
215.108	1.82
215.485	1.73
215.863	1.73
216.24	2.05
216.617	1.97
216.994	2.22
217.371	2.47
217.749	2.09
218.126	2.42
218.503	2.72
218.88	2.65
219.256	2.22
219.633	2.41
220.01	2.53
220.387	2.18
220.764	2.16
221.14	1.75
221.517	1.8
221.894	1.61
222.27	1.34
222.647	1.62
223.023	1.72
223.4	1.88
223.776	2.06
224.153	2.12
224.529	2.43
224.905	2.71
225.282	2.66
225.658	2.51
226.034	2.62
226.41	2.19
226.786	2.22
227.162	2.47
227.538	2.29
227.914	2.05
228.29	1.93
228.666	2.07
229.042	2.1
229.418	2.02
229.793	2.06
230.169	1.91
230.545	1.93
230.92	2.07
231.296	2.08
231.672	2.01
232.047	1.79
232.422	1.7
232.798	1.61
233.173	1.49
233.549	1.66
233.924	1.53
234.299	1.46
234.674	1.53
235.05	1.34
235.425	1.27
235.8	1.42
236.175	1.46
236.55	1.47
236.925	1.42
237.3	1.4
237.675	1.43
238.049	1.42
238.424	1.41
238.799	1.47
239.174	1.5
239.548	1.53
239.923	1.61
240.297	1.5
240.672	1.54
241.046	1.54
241.421	1.68
241.795	1.59
242.17	1.59
242.544	1.7
242.918	1.62
243.293	1.68
243.667	1.64
244.041	1.59
244.415	1.73
244.789	1.7
245.163	1.7
245.537	1.75
245.911	1.62
246.285	1.63
246.659	1.65
247.033	1.6
247.406	1.61
247.78	1.57
248.154	1.56
248.528	1.48
248.901	1.49
249.275	1.46
249.648	1.52
250.022	1.54
250.395	1.52
250.769	1.45
251.142	1.46
251.515	1.42
251.888	1.36
252.262	1.37
252.635	1.29
253.008	1.27
253.381	1.3
253.754	1.24
254.127	1.26
254.5	1.2
254.873	1.14
255.246	1.15
255.619	1.09
255.992	1.16
256.364	1.16
256.737	1.18
257.11	1.15
257.483	1.12
257.855	1.13
258.228	1.12
258.6	1.15
258.973	1.07
259.345	0.97
259.718	0.99
260.09	0.99
260.462	1.08
260.834	1.07
261.207	0.99
261.579	0.96
261.951	1.05
262.323	1.03
262.695	1
263.067	1.02
263.439	1.06
263.811	1.06
264.183	1
264.555	1.06
264.927	1.17
265.298	1.06
265.67	1.06
266.042	1.07
266.413	1.08
266.785	1.08
267.156	1.08
267.528	1.09
267.899	1.01
268.271	1.01
268.642	1.09
269.013	1.09
269.385	1.18
269.756	1.1
270.127	1.15
270.498	1.22
270.87	1.24
271.241	1.22
271.612	1.19
271.983	1.08
272.354	1.1
272.724	1.1
273.095	1.08
273.466	1.13
273.837	1.09
274.208	1.04
274.578	1.07
274.949	1.12
275.32	1.03
275.69	1.06
276.061	1.06
276.431	1.08
276.802	1.09
277.172	1.08
277.542	1.09
277.913	1.16
278.283	1.13
278.653	1.09
279.023	1.08
279.394	1.07
279.764	1.02
280.134	1.01
280.504	0.9
280.874	0.96
281.244	1.02
281.614	0.93
281.983	0.94
282.353	0.98
282.723	0.99
283.093	1.02
283.462	1.04
283.832	1.09
284.202	1.05
284.571	1.15
284.941	1.14
285.31	1.12
285.68	1.09
286.049	1.05
286.418	1.08
286.788	1.12
287.157	1.03
287.526	1.07
287.895	1.05
288.264	1.07
288.633	1.06
289.002	1.04
289.371	1.01
289.74	1.06
290.109	1.02
290.478	1.01
290.847	0.99
291.216	0.94
291.585	0.84
291.953	0.81
292.322	0.75
292.691	0.77
293.059	0.69
293.428	0.71
293.796	0.68
294.165	0.65
294.533	0.66
294.901	0.68
295.27	0.66
295.638	0.68
296.006	0.56
296.374	0.56
296.743	0.49
297.111	0.44
297.479	0.42
297.847	0.35
298.215	0.38
298.583	0.38
298.95	0.42
299.318	0.41
299.686	0.47
300.054	0.45
300.422	0.45
300.789	0.55
301.157	0.52
301.525	0.53
301.892	0.49
302.26	0.49
302.627	0.48
302.994	0.44
303.362	0.43
303.729	0.42
304.097	0.35
304.464	0.42
304.831	0.41
305.198	0.42
305.565	0.44
305.932	0.43
306.299	0.42
306.666	0.46
307.033	0.52
307.4	0.52
307.767	0.51
308.134	0.45
308.501	0.44
308.867	0.41
309.234	0.46
309.601	0.43
309.967	0.42
310.334	0.47
310.701	0.54
311.067	0.51
311.433	0.56
311.8	0.55
312.166	0.56
312.533	0.56
312.899	0.56
313.265	0.62
313.631	0.58
313.997	0.58
314.363	0.62
314.729	0.58
315.096	0.54
315.461	0.57
315.827	0.59
316.193	0.53
316.559	0.52
316.925	0.51
317.291	0.54
317.656	0.54
318.022	0.54
318.388	0.51
318.753	0.51
319.119	0.5
319.484	0.5
319.85	0.46
320.215	0.5
320.581	0.5
320.946	0.5
321.311	0.55
321.676	0.54
322.042	0.52
322.407	0.47
322.772	0.47
323.137	0.45
323.502	0.46
323.867	0.46
324.232	0.53
324.597	0.58
324.962	0.52
325.327	0.6
325.691	0.66
326.056	0.68
326.421	0.61
326.785	0.57
327.15	0.57
327.514	0.59
327.879	0.55
328.243	0.48
328.608	0.42
328.972	0.39
329.337	0.37
329.701	0.32
330.065	0.27
330.429	0.2
330.794	0.22
331.158	0.21
331.522	0.27
331.886	0.33
332.25	0.33
332.614	0.3
332.978	0.32
333.342	0.3
333.705	0.3
334.069	0.32
334.433	0.29
334.797	0.26
335.16	0.16
335.524	0.23
335.887	0.26
336.251	0.23
336.614	0.29
336.978	0.36
337.341	0.41
337.705	0.39
338.068	0.42
338.431	0.43
338.794	0.41
339.158	0.38
339.521	0.45
339.884	0.43
340.247	0.45
340.61	0.41
340.973	0.35
341.336	0.35
341.699	0.4
342.062	0.33
342.424	0.33
342.787	0.35
343.15	0.32
343.512	0.32
343.875	0.33
344.238	0.43
344.6	0.46
344.963	0.53
345.325	0.53
345.688	0.45
346.05	0.43
346.412	0.43
346.775	0.5
347.137	0.48
347.499	0.47
347.861	0.49
348.223	0.5
348.585	0.41
348.947	0.33
349.309	0.33
349.671	0.38
350.033	0.43
350.395	0.4
350.757	0.36
351.118	0.46
351.48	0.38
351.842	0.33
352.203	0.42
352.565	0.39
352.927	0.38
353.288	0.32
353.65	0.24
354.011	0.2
354.372	0.21
354.734	0.2
355.095	0.18
355.456	0.2
355.817	0.08
356.179	0.13
356.54	0.02
356.901	0
357.262	0.05
357.623	0.11
357.984	0.16
358.345	0.15
358.705	0.08
359.066	0.06
359.427	0.17
359.788	0.19
360.148	0.14
360.509	0.2
360.87	0.21
361.23	0.14
361.591	0.16
361.951	0.18
362.312	0.21
362.672	0.23
363.032	0.15
363.393	0.18
363.753	0.19
364.113	0.24
364.473	0.28
364.833	0.36
365.193	0.32
365.553	0.41
365.913	0.46
366.273	0.48
366.633	0.48
366.993	0.53
367.353	0.58
367.713	0.57
368.072	0.46
368.432	0.38
368.792	0.4
369.151	0.45
369.511	0.45
369.87	0.43
370.23	0.35
370.589	0.46
370.949	0.44
371.308	0.45
371.667	0.4
372.027	0.43
372.386	0.36
372.745	0.31
373.104	0.27
373.463	0.28
373.822	0.26
374.181	0.24
374.54	0.24
374.899	0.17
375.258	0.16
375.617	0.11
375.975	0.07
376.334	0.01
376.693	-0.02
377.052	0.08
377.41	0.14
377.769	0.09
378.127	0.04
378.486	0.02
378.844	0.01
379.202	0.18
379.561	0.01
379.919	-0.01
380.277	0
380.636	0.11
380.994	0.12
381.352	0.1
381.71	0.17
382.068	0.13
382.426	0.03
382.784	0.09
383.142	0.12
383.5	0.16
383.857	0.23
384.215	0.21
384.573	0.31
384.931	0.26
385.288	0.29
385.646	0.31
386.003	0.32
386.361	0.24
386.718	0.31
387.076	0.39
387.433	0.41
387.791	0.39
388.148	0.31
388.505	0.31
388.862	0.28
389.22	0.32
389.577	0.2
389.934	0.26
390.291	0.32
390.648	0.28
391.005	0.34
391.362	0.38
391.718	0.36
392.075	0.31
392.432	0.26
392.789	0.25
393.145	0.31
393.502	0.22
393.859	0.18
394.215	0.15
394.572	0.2
394.928	0.15
395.285	0.13
395.641	0.13
395.997	0.11
396.354	0.05
396.71	0.03
397.066	-0.02
397.422	-0.04
397.778	-0
398.134	0.04
398.491	0.2
398.846	0.13
399.202	0.11
399.558	0.17
399.914	0.17
400.27	0.15
400.626	0.07
400.981	0.13
401.337	0.15
401.693	0.18
402.048	0.12
402.404	0.22
402.759	0.3
403.115	0.31
403.47	0.29
403.826	0.34
404.181	0.37
404.536	0.34
404.892	0.28
405.247	0.29
405.602	0.37
405.957	0.46
406.312	0.49
406.667	0.47
407.022	0.39
407.377	0.29
407.732	0.38
408.087	0.39
408.442	0.34
408.796	0.34
409.151	0.25
409.506	0.29
409.86	0.28
410.215	0.3
410.57	0.33
410.924	0.28
411.279	0.2
411.633	0.22
411.987	0.24
412.342	0.18
412.696	0.2
413.05	0.19
413.404	0.23
413.758	0.29
414.113	0.3
414.467	0.37
414.821	0.29
415.175	0.34
415.529	0.39
415.882	0.37
416.236	0.39
416.59	0.38
416.944	0.38
417.298	0.41
417.651	0.39
418.005	0.45
418.358	0.49
418.712	0.54
419.065	0.55
419.419	0.46
419.772	0.49
420.126	0.53
420.479	0.56
420.832	0.63
421.185	0.68
421.539	0.65
421.892	0.69
422.245	0.63
422.598	0.52
422.951	0.56
423.304	0.45
423.657	0.53
424.01	0.49
424.363	0.52
424.715	0.6
425.068	0.57
425.421	0.59
425.773	0.64
426.126	0.76
426.479	0.83
426.831	0.9
427.184	0.93
427.536	0.98
427.889	0.99
428.241	1.05
428.593	1.09
428.945	0.99
429.298	1
429.65	0.9
430.002	0.97
430.354	1.02
430.706	1.04
431.058	1.11
431.41	1.27
431.762	1.23
432.114	1.25
432.466	1.21
432.817	1.2
433.169	1.16
433.521	0.96
433.872	0.98
434.224	0.96
434.576	0.93
434.927	0.73
435.279	0.73
435.63	0.76
435.981	0.74
436.333	0.75
436.684	0.65
437.035	0.58
437.387	0.6
437.738	0.74
438.089	0.83
438.44	0.85
438.791	0.79
439.142	0.75
439.493	0.69
439.844	0.72
440.195	0.65
440.545	0.75
440.896	0.74
441.247	0.68
441.598	0.78
441.948	0.74
442.299	0.9
442.649	0.83
443	0.83
443.35	0.84
443.701	0.99
444.051	0.97
444.401	0.91
444.752	0.91
445.102	0.78
445.452	0.87
445.802	0.87
446.152	0.87
446.502	0.93
446.852	0.73
447.202	0.82
447.552	0.82
447.902	0.86
448.252	0.91
448.602	0.97
448.952	0.96
449.301	0.93
449.651	0.95
450.001	1.07
450.35	1.03
450.7	1.1
451.049	1.13
451.399	1.24
451.748	1.22
452.097	1.18
452.447	1.06
452.796	0.98
453.145	1.04
453.494	1.08
453.843	1.17
454.193	1.11
454.542	1.11
454.891	1.03
455.239	1.01
455.588	1.21
455.937	1.18
456.286	1.22
456.635	1.07
456.984	1.06
457.332	1.05
457.681	1.07
458.03	1.09
458.378	1.14
458.727	1.19
459.075	1.21
459.423	1.28
459.772	1.21
460.12	1.2
460.468	1.32
460.817	1.37
461.165	1.51
461.513	1.46
461.861	1.55
462.209	1.46
462.557	1.46
462.905	1.47
463.253	1.46
463.601	1.55
463.949	1.57
464.297	1.5
464.644	1.47
464.992	1.43
465.34	1.57
465.687	1.41
466.035	1.4
466.383	1.44
466.73	1.31
467.078	1.32
467.425	1.27
467.772	1.2
468.12	1.1
468.467	1.19
468.814	1.26
469.161	1.18
469.508	1.22
469.856	1.1
470.203	1.16
470.55	1.15
470.897	1.16
471.243	1.12
471.59	1.21
471.937	1.31
472.284	1.23
472.631	1.12
472.977	1.19
473.324	1.1
473.671	1.06
474.017	1.03
474.364	1.12
474.71	1.02
475.057	1
475.403	1.03
475.749	1.06
476.096	1.02
476.442	1.04
476.788	0.98
477.134	0.93
477.48	0.87
477.826	0.85
478.172	0.87
478.518	0.82
478.864	0.96
479.21	0.89
479.556	0.85
479.902	0.82
480.248	0.76
480.593	0.7
480.939	0.73
481.285	0.82
481.63	0.73
481.976	0.84
482.321	0.92
482.667	1.04
483.012	1.03
483.357	1.06
483.703	1.1
484.048	1.24
484.393	1.28
484.738	1.39
485.084	1.47
485.429	1.65
485.774	1.75
486.119	1.89
486.464	1.98
486.808	2.11
487.153	2.35
487.498	2.37
487.843	2.47
488.188	2.75
488.532	2.99
488.877	3.29
489.222	3.64
489.566	3.95
489.911	4.19
490.255	4.55
490.6	4.77
490.944	5.12
491.288	5.37
491.633	5.7
491.977	6.06
492.321	6.4
492.665	6.69
493.009	7.11
493.353	7.59
493.697	7.96
494.041	8.36
494.385	8.86
494.729	9.25
495.073	9.71
495.417	10.15
495.76	10.68
496.104	11.31
496.448	11.9
496.791	12.43
497.135	13.07
497.479	13.66
497.822	14.23
498.165	14.8
498.509	15.46
498.852	16.14
499.196	16.9
499.539	17.6
499.882	18.24
500.225	19
500.568	19.75
500.911	20.4
501.254	21.17
501.597	21.81
501.94	22.33
502.283	23.04
502.626	23.72
502.969	24.27
503.312	24.98
503.654	25.69
503.997	26.33
504.34	26.91
504.682	27.57
505.025	28.26
505.367	28.97
505.71	29.55
506.052	30.02
506.395	30.47
506.737	31.11
507.079	31.65
507.421	32.19
507.764	32.82
508.106	33.38
508.448	34.03
508.79	34.52
509.132	34.95
509.474	35.49
509.816	35.88
510.158	36.27
510.499	36.86
510.841	37.31
511.183	37.73
511.525	38.27
511.866	38.64
512.208	39.05
512.549	39.43
512.891	39.91
513.232	40.22
513.574	40.53
513.915	40.81
514.256	41.22
514.598	41.68
514.939	42.16
515.28	42.44
515.621	42.77
515.962	43.13
516.303	43.33
516.644	43.58
516.985	43.7
517.326	43.97
517.667	44.21
518.008	44.43
518.349	44.61
518.69	44.95
519.03	45.08
519.371	45.24
519.712	45.36
520.052	45.42
520.393	45.73
520.733	45.89
521.074	46.24
521.414	46.36
521.754	46.54
522.095	46.83
522.435	46.97
522.775	47.14
523.115	47.19
523.455	47.31
523.795	47.47
524.135	47.65
524.475	47.71
524.815	47.81
525.155	47.96
525.495	48.04
525.835	48.14
526.175	48.23
526.514	48.36
526.854	48.58
527.194	48.53
527.533	48.67
527.873	48.77
528.212	48.9
528.552	49.19
528.891	49.13
529.23	49.24
529.57	49.21
529.909	49.31
530.248	49.32
530.587	49.32
530.927	49.49
531.266	49.6
531.605	49.73
531.944	49.77
532.283	49.78
532.621	49.71
532.96	49.76
533.299	49.88
533.638	49.83
533.977	49.8
534.315	49.86
534.654	49.91
534.992	49.94
535.331	50.13
535.67	50.34
536.008	50.18
536.346	50.16
536.685	50.29
537.023	50.28
537.361	50.41
537.7	50.43
538.038	50.59
538.376	50.7
538.714	50.62
539.052	50.63
539.39	50.61
539.728	50.52
540.066	50.62
540.404	50.61
540.741	50.58
541.079	50.71
541.417	50.81
541.755	50.67
542.092	50.62
542.43	50.44
542.767	50.39
543.105	50.43
543.442	50.35
543.78	50.28
544.117	50.26
544.454	50.52
544.792	50.58
545.129	50.49
545.466	50.52
545.803	50.42
546.14	50.55
546.477	50.42
546.814	50.41
547.151	50.44
547.488	50.53
547.825	50.41
548.162	50.42
548.499	50.26
548.835	50.25
549.172	50.21
549.509	50.25
549.845	50.12
550.182	50.17
550.518	50.21
550.855	50.63
551.191	50.46
551.528	50.47
551.864	50.52
552.2	50.34
552.537	50.28
552.873	50.18
553.209	50.25
553.545	50.26
553.881	50.31
554.217	50.45
554.553	50.21
554.889	50.29
555.225	50.13
555.561	50.28
555.896	50.3
556.232	50.6
556.568	50.42
556.903	50.61
557.239	50.83
557.575	51.05
557.91	51
558.245	51.19
558.581	51.21
558.916	51.32
559.252	51.32
559.587	51.47
559.922	51.39
560.257	51.47
560.592	51.47
560.928	51.56
561.263	51.62
561.598	51.69
561.933	51.76
562.267	51.9
562.602	51.87
562.937	52.07
563.272	52.3
563.607	52.26
563.941	52.56
564.276	52.63
564.611	52.5
564.945	52.74
565.28	52.82
565.614	52.84
565.949	52.8
566.283	52.84
566.617	52.85
566.951	52.96
567.286	52.93
567.62	53.05
567.954	53.1
568.288	53.19
568.622	53.22
568.956	53.36
569.29	53.38
569.624	53.45
569.958	53.46
570.292	53.61
570.626	53.54
570.959	53.56
571.293	53.76
571.627	53.62
571.96	53.78
572.294	53.69
572.627	53.72
572.961	53.85
573.294	53.88
573.627	53.86
573.961	53.91
574.294	53.98
574.627	54.06
574.961	54.11
575.294	54.12
575.627	54.19
575.96	54.16
576.293	54.32
576.626	54.36
576.959	54.35
577.292	54.43
577.624	54.48
577.957	54.49
578.29	54.63
578.623	54.68
578.955	54.75
579.288	54.89
579.62	54.8
579.953	54.92
580.285	55.02
580.618	55.15
580.95	55.24
581.282	55.28
581.615	55.45
581.947	55.38
582.279	55.38
582.611	55.4
582.943	55.5
583.275	55.56
583.607	55.71
583.939	55.86
584.271	56.05
584.603	56.12
584.935	56.2
585.267	56.29
585.598	56.29
585.93	56.32
586.262	56.35
586.593	56.31
586.925	56.32
587.256	56.45
587.588	56.43
587.919	56.52
588.25	56.74
588.582	56.8
588.913	56.89
589.244	56.86
589.575	56.91
589.907	56.84
590.238	57.13
590.569	57.36
590.9	57.39
591.231	57.37
591.562	57.44
591.892	57.46
592.223	57.54
592.554	57.55
592.885	57.68
593.215	57.71
593.546	57.93
593.877	57.95
594.207	58.01
594.538	58.34
594.868	58.47
595.198	58.43
595.529	58.55
595.859	58.73
596.189	58.88
596.52	58.86
596.85	59.05
597.18	59.12
597.51	59.23
597.84	59.3
598.17	59.47
598.5	59.63
598.83	59.57
599.16	59.95
599.489	60.09
599.819	60.15
600.149	60.37
600.479	60.31
600.808	60.33
601.138	60.27
601.467	60.56
601.797	60.61
602.126	60.78
602.456	60.89
602.785	60.85
603.114	60.87
603.443	61.04
603.773	61.11
604.102	61.12
604.431	61.23
604.76	61.39
605.089	61.41
605.418	61.47
605.747	61.76
606.076	61.9
606.405	62.17
606.733	62.34
607.062	62.42
607.391	62.32
607.72	62.42
608.048	62.6
608.377	62.61
608.705	63.13
609.034	63.26
609.362	63.57
609.69	63.74
610.019	63.93
610.347	64.01
610.675	64.27
611.004	64.29
611.332	64.51
611.66	64.72
611.988	64.82
612.316	64.86
612.644	64.94
612.972	65
613.3	65.32
613.627	65.48
613.955	65.62
614.283	65.72
614.611	65.55
614.938	65.51
615.266	65.74
615.593	65.92
615.921	66.2
616.248	66.44
616.576	66.6
616.903	66.68
617.23	67.09
617.558	67.49
617.885	67.52
618.212	67.58
618.539	67.85
618.866	67.68
619.193	68.09
619.52	68.3
619.847	68.41
620.174	68.34
620.501	68.5
620.828	68.42
621.155	68.51
621.481	68.08
621.808	68
622.135	67.89
622.461	68.01
622.788	68.28
623.114	68.39
623.441	68.55
623.767	68.66
624.093	68.55
624.42	68.83
624.746	69.08
625.072	69.28
625.398	69.34
625.725	69.12
626.051	69.02
626.377	69.39
626.703	69.61
627.029	69.94
627.354	69.83
627.68	69.94
628.006	70.61
628.332	70.95
628.658	71.27
628.983	71.6
629.309	71.48
629.634	72.24
629.96	72.76
630.285	72.34
630.611	72.69
630.936	72.49
631.262	72.52
631.587	72.97
631.912	73.2
632.237	73.53
632.562	73.07
632.887	73.22
633.213	73.22
633.538	73.22
633.863	73.23
634.187	73.62
634.512	73.11
634.837	72.87
635.162	73.47
635.487	73.32
635.811	73.42
636.136	73.23
636.461	73.19
636.785	73.22
637.11	73.17
637.434	73.06
637.758	72.8
638.083	72.95
638.407	73.61
638.731	73.57
639.056	73.71
639.38	73.7
639.704	73.62
640.028	74.3
640.352	74.01
640.676	74.96
641	74.79
641.324	74.89
641.648	74.57
641.972	74.58
642.295	74.57
642.619	75.18
642.943	75.79
643.266	76.01
643.59	76.2
643.913	75.87
644.237	75.94
644.56	76.14
644.884	76.03
645.207	76.84
645.53	77.52
645.854	77.51
646.177	77.07
646.5	76.74
646.823	76.14
647.146	76.55
647.469	76.46
647.792	76.11
648.115	75.63
648.438	76.07
648.761	75.87
649.084	75.8
649.406	75.1
649.729	74.71
650.052	74.81
650.374	74.89
650.697	74.66
651.019	74.49
651.342	74.38
651.664	74.55
651.987	74.67
652.309	74.45
652.631	74.57
652.953	74.48
653.276	74.15
653.598	74.17
653.92	74.28
654.242	74.47
654.564	74.57
654.886	74.58
655.208	74.53
655.53	74.72
655.851	74.7
656.173	74.63
656.495	74.6
656.816	74.29
657.138	74.48
657.46	74.91
657.781	76.09
658.103	76.02
658.424	75.9
658.746	75.97
659.067	76.67
659.388	76.91
659.709	76.46
660.031	76.53
660.352	77.17
660.673	76.35
660.994	76.85
661.315	77.65
661.636	77.75
661.957	77.39
662.278	76.82
662.599	76.24
662.919	76.57
663.24	76.17
663.561	76.29
663.881	76.72
664.202	76.45
664.523	75.34
