Data from T2__Reflection__69__00-46-49-764.txt Node

Date: Sat Jun 05 00:46:49 CEST 2021
User: mabdelazizm
Spectrometer: FLMS18565
Trigger mode: 0
Integration Time (sec): 2.000000E0
Scans to average: 1
Electric dark correction enabled: true
Nonlinearity correction enabled: false
Boxcar width: 12
XAxis mode: Wavelengths
Number of Pixels in Spectrum: 2048
>>>>>Begin Spectral Data<<<<<
179.071	63.5
179.452	69.08
179.833	76.77
180.214	108.86
180.595	191.48
180.977	638.24
181.358	134.07
181.739	287.14
182.12	128.8
182.501	147.9
182.882	123.06
183.262	152.63
183.643	-469.18
184.024	-93.32
184.405	-38.6
184.786	-30.66
185.166	-11.53
185.547	-20.75
185.927	2.02
186.308	-8.37
186.689	-0.48
187.069	11.38
187.449	8.88
187.83	-1.31
188.21	-9.66
188.59	-10.99
188.971	-16.21
189.351	-19.28
189.731	-15.63
190.111	-27.12
190.491	-31.16
190.871	-36.8
191.251	-25.04
191.631	-20.83
192.011	-25.01
192.391	-25.86
192.771	-26.49
193.151	-24.5
193.531	-27.03
193.91	-21.96
194.29	-18.91
194.67	-17.66
195.049	-17.99
195.429	-20.68
195.808	-22.56
196.188	-25.62
196.567	-29.24
196.946	-30.87
197.326	-27.73
197.705	-26.28
198.084	-22.75
198.464	-21.17
198.843	-21.93
199.222	-20.98
199.601	-14.98
199.98	-12.05
200.359	-10.19
200.738	-9.87
201.117	-14.29
201.496	-13.16
201.875	-16.19
202.254	-16.54
202.632	-16.64
203.011	-14.19
203.39	-17.39
203.768	-18.05
204.147	-15.25
204.525	-15.88
204.904	-15.62
205.282	-12.53
205.661	-13.56
206.039	-11.47
206.418	-11.43
206.796	-12.19
207.174	-14.68
207.552	-16.9
207.931	-17.16
208.309	-13.97
208.687	-16.43
209.065	-17.69
209.443	-19.76
209.821	-19.27
210.199	-20.54
210.577	-17.06
210.954	-13.68
211.332	-12.58
211.71	-11.83
212.088	-10.06
212.465	-11.05
212.843	-9.02
213.221	-8.96
213.598	-11.93
213.976	-11.79
214.353	-10.77
214.731	-10.24
215.108	-8.56
215.485	-10.29
215.863	-10.69
216.24	-10.99
216.617	-10.05
216.994	-8.04
217.371	-8.2
217.749	-8.63
218.126	-5.97
218.503	-7.13
218.88	-6.39
219.256	-5.64
219.633	-4.56
220.01	-5.52
220.387	-5.72
220.764	-5.71
221.14	-5.95
221.517	-5.5
221.894	-5.1
222.27	-5.39
222.647	-5.43
223.023	-4.37
223.4	-3.07
223.776	-3.33
224.153	-4.09
224.529	-3.33
224.905	-2.58
225.282	-2.16
225.658	-2.18
226.034	-1.71
226.41	-1
226.786	-0.74
227.162	-0.83
227.538	-0.97
227.914	-0.83
228.29	-0.84
228.666	-0.98
229.042	-0.91
229.418	-0.45
229.793	-0.43
230.169	-0.24
230.545	-0.33
230.92	-0.51
231.296	-0.55
231.672	-0.43
232.047	-0.24
232.422	-0.31
232.798	-0.3
233.173	-0.09
233.549	0.31
233.924	0.22
234.299	0.11
234.674	0.19
235.05	0.43
235.425	0.47
235.8	0.23
236.175	0.25
236.55	0.29
236.925	0.44
237.3	0.49
237.675	0.61
238.049	0.69
238.424	0.79
238.799	0.77
239.174	0.87
239.548	0.82
239.923	0.83
240.297	0.82
240.672	0.89
241.046	0.87
241.421	0.94
241.795	1
242.17	0.99
242.544	0.95
242.918	0.84
243.293	0.83
243.667	0.82
244.041	0.88
244.415	0.9
244.789	0.79
245.163	0.84
245.537	0.87
245.911	0.91
246.285	0.79
246.659	0.8
247.033	0.76
247.406	0.76
247.78	0.7
248.154	0.71
248.528	0.63
248.901	0.69
249.275	0.71
249.648	0.71
250.022	0.64
250.395	0.69
250.769	0.63
251.142	0.69
251.515	0.68
251.888	0.67
252.262	0.69
252.635	0.7
253.008	0.69
253.381	0.66
253.754	0.61
254.127	0.67
254.5	0.67
254.873	0.65
255.246	0.63
255.619	0.69
255.992	0.71
256.364	0.66
256.737	0.64
257.11	0.67
257.483	0.68
257.855	0.67
258.228	0.65
258.6	0.67
258.973	0.74
259.345	0.82
259.718	0.73
260.09	0.76
260.462	0.67
260.834	0.73
261.207	0.7
261.579	0.68
261.951	0.71
262.323	0.76
262.695	0.78
263.067	0.82
263.439	0.83
263.811	0.82
264.183	0.84
264.555	0.83
264.927	0.82
265.298	0.79
265.67	0.83
266.042	0.85
266.413	0.83
266.785	0.78
267.156	0.79
267.528	0.81
267.899	0.76
268.271	0.75
268.642	0.7
269.013	0.73
269.385	0.68
269.756	0.62
270.127	0.58
270.498	0.61
270.87	0.63
271.241	0.63
271.612	0.58
271.983	0.52
272.354	0.52
272.724	0.52
273.095	0.52
273.466	0.47
273.837	0.47
274.208	0.46
274.578	0.49
274.949	0.47
275.32	0.44
275.69	0.43
276.061	0.46
276.431	0.47
276.802	0.42
277.172	0.44
277.542	0.43
277.913	0.45
278.283	0.47
278.653	0.54
279.023	0.6
279.394	0.63
279.764	0.6
280.134	0.56
280.504	0.58
280.874	0.62
281.244	0.64
281.614	0.6
281.983	0.62
282.353	0.61
282.723	0.65
283.093	0.59
283.462	0.63
283.832	0.61
284.202	0.64
284.571	0.62
284.941	0.6
285.31	0.59
285.68	0.61
286.049	0.64
286.418	0.66
286.788	0.69
287.157	0.67
287.526	0.67
287.895	0.61
288.264	0.6
288.633	0.61
289.002	0.59
289.371	0.63
289.74	0.55
290.109	0.54
290.478	0.54
290.847	0.52
291.216	0.47
291.585	0.47
291.953	0.41
292.322	0.49
292.691	0.47
293.059	0.43
293.428	0.41
293.796	0.4
294.165	0.4
294.533	0.42
294.901	0.39
295.27	0.37
295.638	0.34
296.006	0.3
296.374	0.25
296.743	0.2
297.111	0.18
297.479	0.22
297.847	0.15
298.215	0.2
298.583	0.15
298.95	0.18
299.318	0.18
299.686	0.19
300.054	0.18
300.422	0.2
300.789	0.21
301.157	0.22
301.525	0.17
301.892	0.15
302.26	0.19
302.627	0.18
302.994	0.23
303.362	0.24
303.729	0.22
304.097	0.25
304.464	0.27
304.831	0.28
305.198	0.21
305.565	0.25
305.932	0.26
306.299	0.29
306.666	0.32
307.033	0.33
307.4	0.35
307.767	0.35
308.134	0.33
308.501	0.3
308.867	0.35
309.234	0.36
309.601	0.38
309.967	0.33
310.334	0.33
310.701	0.34
311.067	0.35
311.433	0.35
311.8	0.35
312.166	0.31
312.533	0.3
312.899	0.28
313.265	0.26
313.631	0.26
313.997	0.28
314.363	0.32
314.729	0.28
315.096	0.28
315.461	0.28
315.827	0.22
316.193	0.21
316.559	0.19
316.925	0.26
317.291	0.3
317.656	0.29
318.022	0.24
318.388	0.21
318.753	0.14
319.119	0.19
319.484	0.19
319.85	0.18
320.215	0.14
320.581	0.14
320.946	0.15
321.311	0.17
321.676	0.14
322.042	0.17
322.407	0.16
322.772	0.15
323.137	0.08
323.502	0.09
323.867	0.12
324.232	0.07
324.597	0.09
324.962	0.12
325.327	0.13
325.691	0.15
326.056	0.13
326.421	0.1
326.785	0.11
327.15	0.1
327.514	0.08
327.879	0.12
328.243	0.08
328.608	0.1
328.972	0.05
329.337	0.06
329.701	0.1
330.065	0.08
330.429	0.07
330.794	0.11
331.158	0.11
331.522	0.07
331.886	0.08
332.25	0.11
332.614	0.09
332.978	0.05
333.342	0.14
333.705	0.12
334.069	0.06
334.433	0.04
334.797	0.03
335.16	0.04
335.524	0.02
335.887	-0.01
336.251	0.01
336.614	0.02
336.978	-0.03
337.341	-0.02
337.705	-0.07
338.068	0.01
338.431	0.08
338.794	0.02
339.158	0.01
339.521	-0.03
339.884	-0.07
340.247	-0.13
340.61	-0.14
340.973	-0.18
341.336	-0.23
341.699	-0.23
342.062	-0.2
342.424	-0.26
342.787	-0.3
343.15	-0.35
343.512	-0.39
343.875	-0.4
344.238	-0.42
344.6	-0.4
344.963	-0.39
345.325	-0.39
345.688	-0.36
346.05	-0.34
346.412	-0.37
346.775	-0.32
347.137	-0.33
347.499	-0.42
347.861	-0.38
348.223	-0.41
348.585	-0.37
348.947	-0.32
349.309	-0.29
349.671	-0.26
350.033	-0.23
350.395	-0.21
350.757	-0.18
351.118	-0.19
351.48	-0.19
351.842	-0.16
352.203	-0.07
352.565	-0.02
352.927	-0.06
353.288	-0.11
353.65	-0.11
354.011	-0.12
354.372	-0.13
354.734	-0.14
355.095	-0.09
355.456	-0.1
355.817	-0.16
356.179	-0.18
356.54	-0.14
356.901	-0.2
357.262	-0.17
357.623	-0.24
357.984	-0.24
358.345	-0.22
358.705	-0.24
359.066	-0.23
359.427	-0.19
359.788	-0.21
360.148	-0.18
360.509	-0.12
360.87	-0.12
361.23	-0.08
361.591	-0.09
361.951	-0.1
362.312	-0.1
362.672	-0.08
363.032	-0.02
363.393	0.03
363.753	0.09
364.113	0.02
364.473	0.04
364.833	0.07
365.193	0.03
365.553	0.04
365.913	-0.02
366.273	-0.03
366.633	0.03
366.993	-0.02
367.353	-0.05
367.713	-0.02
368.072	-0.04
368.432	-0.03
368.792	-0.08
369.151	-0.14
369.511	-0.17
369.87	-0.19
370.23	-0.24
370.589	-0.27
370.949	-0.3
371.308	-0.28
371.667	-0.28
372.027	-0.3
372.386	-0.37
372.745	-0.4
373.104	-0.38
373.463	-0.33
373.822	-0.28
374.181	-0.24
374.54	-0.22
374.899	-0.14
375.258	-0.12
375.617	-0.11
375.975	-0.11
376.334	-0.09
376.693	-0.1
377.052	-0.12
377.41	-0.14
377.769	-0.14
378.127	-0.11
378.486	-0.12
378.844	-0.06
379.202	-0.08
379.561	-0.1
379.919	-0.08
380.277	-0.1
380.636	-0.14
380.994	-0.23
381.352	-0.26
381.71	-0.29
382.068	-0.26
382.426	-0.3
382.784	-0.27
383.142	-0.28
383.5	-0.32
383.857	-0.34
384.215	-0.36
384.573	-0.39
384.931	-0.43
385.288	-0.46
385.646	-0.46
386.003	-0.41
386.361	-0.4
386.718	-0.4
387.076	-0.36
387.433	-0.34
387.791	-0.36
388.148	-0.34
388.505	-0.35
388.862	-0.37
389.22	-0.33
389.577	-0.31
389.934	-0.22
390.291	-0.21
390.648	-0.21
391.005	-0.2
391.362	-0.15
391.718	-0.16
392.075	-0.18
392.432	-0.18
392.789	-0.12
393.145	-0.13
393.502	-0.12
393.859	-0.08
394.215	-0.04
394.572	-0.03
394.928	-0.08
395.285	-0.1
395.641	-0.07
395.997	-0.09
396.354	-0.11
396.71	-0.06
397.066	-0.08
397.422	-0.04
397.778	-0
398.134	-0.02
398.491	-0.05
398.846	-0.05
399.202	-0.07
399.558	-0.03
399.914	-0.06
400.27	-0.1
400.626	-0.14
400.981	-0.13
401.337	-0.07
401.693	-0.15
402.048	-0.12
402.404	-0.1
402.759	-0.05
403.115	-0.11
403.47	-0.08
403.826	-0.06
404.181	-0.12
404.536	-0.14
404.892	-0.09
405.247	-0.1
405.602	-0.17
405.957	-0.17
406.312	-0.16
406.667	-0.22
407.022	-0.24
407.377	-0.25
407.732	-0.29
408.087	-0.24
408.442	-0.26
408.796	-0.3
409.151	-0.24
409.506	-0.32
409.86	-0.3
410.215	-0.32
410.57	-0.22
410.924	-0.22
411.279	-0.23
411.633	-0.3
411.987	-0.27
412.342	-0.29
412.696	-0.3
413.05	-0.22
413.404	-0.19
413.758	-0.16
414.113	-0.14
414.467	-0.14
414.821	-0.08
415.175	-0.05
415.529	0.03
415.882	0.07
416.236	0.11
416.59	0.13
416.944	0.15
417.298	0.18
417.651	0.21
418.005	0.26
418.358	0.4
418.712	0.41
419.065	0.42
419.419	0.41
419.772	0.38
420.126	0.35
420.479	0.41
420.832	0.4
421.185	0.41
421.539	0.39
421.892	0.4
422.245	0.34
422.598	0.3
422.951	0.32
423.304	0.35
423.657	0.34
424.01	0.22
424.363	0.26
424.715	0.34
425.068	0.46
425.421	0.5
425.773	0.48
426.126	0.48
426.479	0.46
426.831	0.36
427.184	0.33
427.536	0.35
427.889	0.34
428.241	0.35
428.593	0.35
428.945	0.39
429.298	0.34
429.65	0.33
430.002	0.32
430.354	0.3
430.706	0.31
431.058	0.38
431.41	0.33
431.762	0.33
432.114	0.26
432.466	0.23
432.817	0.36
433.169	0.36
433.521	0.3
433.872	0.19
434.224	0.2
434.576	0.21
434.927	0.25
435.279	0.3
435.63	0.3
435.981	0.31
436.333	0.37
436.684	0.29
437.035	0.26
437.387	0.34
437.738	0.35
438.089	0.37
438.44	0.42
438.791	0.44
439.142	0.54
439.493	0.53
439.844	0.51
440.195	0.58
440.545	0.67
440.896	0.79
441.247	0.79
441.598	0.72
441.948	0.74
442.299	0.68
442.649	0.64
443	0.55
443.35	0.58
443.701	0.45
444.051	0.47
444.401	0.48
444.752	0.46
445.102	0.36
445.452	0.38
445.802	0.35
446.152	0.34
446.502	0.42
446.852	0.46
447.202	0.43
447.552	0.38
447.902	0.39
448.252	0.43
448.602	0.92
448.952	0.81
449.301	0.67
449.651	0.63
450.001	0.71
450.35	0.78
450.7	0.77
451.049	0.78
451.399	0.87
451.748	0.92
452.097	0.92
452.447	0.87
452.796	0.83
453.145	0.88
453.494	0.83
453.843	0.8
454.193	0.9
454.542	1.05
454.891	1.01
455.239	0.91
455.588	0.89
455.937	0.98
456.286	1.05
456.635	0.95
456.984	0.94
457.332	0.41
457.681	0.55
458.03	0.64
458.378	0.6
458.727	0.7
459.075	0.71
459.423	0.73
459.772	0.75
460.12	0.63
460.468	0.77
460.817	0.8
461.165	0.93
461.513	0.98
461.861	1.12
462.209	1.11
462.557	1.12
462.905	1.05
463.253	0.91
463.601	1
463.949	1.07
464.297	1.07
464.644	0.99
464.992	0.96
465.34	1.05
465.687	1.13
466.035	1.16
466.383	1.04
466.73	0.97
467.078	1.06
467.425	0.9
467.772	0.89
468.12	0.8
468.467	0.79
468.814	0.92
469.161	0.86
469.508	0.9
469.856	0.91
470.203	0.87
470.55	0.72
470.897	0.76
471.243	0.82
471.59	0.78
471.937	0.82
472.284	0.83
472.631	0.77
472.977	0.8
473.324	0.87
473.671	0.83
474.017	0.76
474.364	0.67
474.71	0.59
475.057	0.62
475.403	0.6
475.749	0.55
476.096	0.58
476.442	0.6
476.788	0.57
477.134	0.63
477.48	0.55
477.826	0.5
478.172	0.49
478.518	0.49
478.864	0.55
479.21	0.6
479.556	0.59
479.902	0.59
480.248	0.65
480.593	0.66
480.939	0.65
481.285	0.76
481.63	0.76
481.976	0.66
482.321	0.65
482.667	0.7
483.012	0.78
483.357	0.85
483.703	0.95
484.048	1.06
484.393	1.15
484.738	1.25
485.084	1.26
485.429	1.41
485.774	1.48
486.119	1.58
486.464	1.75
486.808	1.8
487.153	1.91
487.498	2.03
487.843	2.15
488.188	2.35
488.532	2.57
488.877	2.73
489.222	2.95
489.566	3.14
489.911	3.34
490.255	3.62
490.6	4.04
490.944	4.43
491.288	4.72
491.633	5.01
491.977	5.36
492.321	5.72
492.665	6.06
493.009	6.41
493.353	6.75
493.697	7.22
494.041	7.68
494.385	8.11
494.729	8.56
495.073	9
495.417	9.51
495.76	10.1
496.104	10.59
496.448	11.08
496.791	11.62
497.135	12.07
497.479	12.66
497.822	13.19
498.165	13.79
498.509	14.42
498.852	14.99
499.196	15.52
499.539	16.07
499.882	16.68
500.225	17.28
500.568	17.84
500.911	18.37
501.254	19
501.597	19.57
501.94	20.19
502.283	20.71
502.626	21.29
502.969	21.82
503.312	22.32
503.654	22.84
503.997	23.44
504.34	23.98
504.682	24.56
505.025	25.23
505.367	25.78
505.71	26.41
506.052	26.89
506.395	27.39
506.737	27.93
507.079	28.34
507.421	28.88
507.764	29.45
508.106	29.95
508.448	30.5
508.79	30.87
509.132	31.34
509.474	31.85
509.816	32.25
510.158	32.65
510.499	33.06
510.841	33.59
511.183	33.97
511.525	34.39
511.866	34.89
512.208	35.25
512.549	35.56
512.891	35.78
513.232	35.98
513.574	36.14
513.915	36.4
514.256	36.66
514.598	37.05
514.939	37.49
515.28	37.68
515.621	38.01
515.962	38.27
516.303	38.52
516.644	38.79
516.985	39.04
517.326	39.33
517.667	39.65
518.008	39.93
518.349	40.13
518.69	40.43
519.03	40.72
519.371	40.84
519.712	41.05
520.052	41.38
520.393	41.56
520.733	41.77
521.074	42.01
521.414	42.37
521.754	42.73
522.095	43.02
522.435	43.31
522.775	43.54
523.115	43.6
523.455	43.64
523.795	43.9
524.135	44
524.475	44.25
524.815	44.37
525.155	44.63
525.495	44.87
525.835	45.14
526.175	45.16
526.514	45.14
526.854	45.33
527.194	45.47
527.533	45.47
527.873	45.68
528.212	45.85
528.552	45.92
528.891	46.13
529.23	46.32
529.57	46.39
529.909	46.44
530.248	46.57
530.587	46.77
530.927	46.78
531.266	46.79
531.605	46.91
531.944	47.02
532.283	47.15
532.621	47.35
532.96	47.42
533.299	47.59
533.638	47.55
533.977	47.36
534.315	47.42
534.654	47.45
534.992	47.69
535.331	47.61
535.67	47.67
536.008	47.68
536.346	47.6
536.685	47.65
537.023	47.6
537.361	47.53
537.7	47.56
538.038	47.71
538.376	47.87
538.714	47.94
539.052	47.95
539.39	48.1
539.728	48.25
540.066	48.33
540.404	48.53
540.741	48.6
541.079	48.71
541.417	48.75
541.755	48.76
542.092	48.85
542.43	48.99
542.767	48.92
543.105	48.97
543.442	48.87
543.78	49
544.117	49.01
544.454	49.14
544.792	49.19
545.129	49.27
545.466	49.39
545.803	49.49
546.14	49.55
546.477	49.49
546.814	49.48
547.151	49.35
547.488	49.38
547.825	49.3
548.162	49.3
548.499	49.4
548.835	49.36
549.172	49.46
549.509	49.39
549.845	49.39
550.182	49.42
550.518	49.47
550.855	49.55
551.191	49.69
551.528	49.83
551.864	49.93
552.2	50.04
552.537	50.07
552.873	50.05
553.209	50.16
553.545	50.12
553.881	50.11
554.217	50.35
554.553	50.5
554.889	50.53
555.225	50.61
555.561	50.75
555.896	50.84
556.232	50.92
556.568	50.88
556.903	50.75
557.239	50.74
557.575	50.63
557.91	50.68
558.245	50.92
558.581	51.04
558.916	51.09
559.252	51.09
559.587	51.24
559.922	51.27
560.257	51.29
560.592	51.25
560.928	51.3
561.263	51.31
561.598	51.37
561.933	51.38
562.267	51.6
562.602	51.46
562.937	51.53
563.272	51.73
563.607	51.86
563.941	52.14
564.276	52.21
564.611	52.39
564.945	52.5
565.28	52.85
565.614	53.07
565.949	53.05
566.283	53.17
566.617	52.97
566.951	53.04
567.286	53.1
567.62	53.21
567.954	53.24
568.288	53.35
568.622	53.38
568.956	53.41
569.29	53.34
569.624	53.37
569.958	53.39
570.292	53.44
570.626	53.37
570.959	53.34
571.293	53.34
571.627	53.36
571.96	53.27
572.294	53.17
572.627	53.2
572.961	53.17
573.294	53.24
573.627	53.11
573.961	53.02
574.294	53.26
574.627	53.27
574.961	53.41
575.294	53.49
575.627	53.44
575.96	53.49
576.293	53.33
576.626	53.35
576.959	53.34
577.292	53.36
577.624	53.49
577.957	53.6
578.29	53.73
578.623	53.76
578.955	53.8
579.288	53.86
579.62	53.8
579.953	53.78
580.285	53.76
580.618	53.86
580.95	53.92
581.282	53.95
581.615	53.97
581.947	53.99
582.279	54.02
582.611	53.87
582.943	53.92
583.275	54
583.607	54.02
583.939	54.07
584.271	54.05
584.603	54.33
584.935	54.29
585.267	54.33
585.598	54.39
585.93	54.34
586.262	54.37
586.593	54.25
586.925	54.25
587.256	54.23
587.588	54.19
587.919	54.2
588.25	54.19
588.582	54.21
588.913	54.15
589.244	54.06
589.575	54.06
589.907	54.11
590.238	54.21
590.569	54.31
590.9	54.46
591.231	54.55
591.562	54.38
591.892	54.29
592.223	54.34
592.554	54.42
592.885	54.21
593.215	54.12
593.546	54.2
593.877	54.21
594.207	54.35
594.538	54.39
594.868	54.4
595.198	54.3
595.529	54.18
595.859	54.19
596.189	54.26
596.52	54.28
596.85	54.42
597.18	54.45
597.51	54.56
597.84	54.55
598.17	54.5
598.5	54.52
598.83	54.61
599.16	54.59
599.489	54.49
599.819	54.59
600.149	54.47
600.479	54.46
600.808	54.32
601.138	54.41
601.467	54.56
601.797	54.51
602.126	54.46
602.456	54.46
602.785	54.41
603.114	54.52
603.443	54.66
603.773	54.87
604.102	55.07
604.431	55.03
604.76	55.07
605.089	55.04
605.418	54.92
605.747	54.88
606.076	55
606.405	55.04
606.733	55.1
607.062	54.97
607.391	54.95
607.72	54.99
608.048	54.95
608.377	54.97
608.705	54.89
609.034	54.98
609.362	54.88
609.69	54.96
610.019	55.02
610.347	55.07
610.675	54.89
611.004	54.81
611.332	54.7
611.66	54.67
611.988	54.66
612.316	54.55
612.644	54.57
612.972	54.55
613.3	54.58
613.627	54.69
613.955	54.63
614.283	54.49
614.611	54.49
614.938	54.45
615.266	54.47
615.593	54.25
615.921	54.24
616.248	54.31
616.576	54.43
616.903	54.61
617.23	54.66
617.558	54.76
617.885	54.68
618.212	54.64
618.539	54.56
618.866	54.5
619.193	54.68
619.52	54.55
619.847	54.52
620.174	54.44
620.501	54.39
620.828	54.43
621.155	54.35
621.481	54.3
621.808	54.15
622.135	54.09
622.461	54.35
622.788	54.09
623.114	54.14
623.441	54.17
623.767	54.32
624.093	54.11
624.42	54.19
624.746	54.14
625.072	54.05
625.398	53.86
625.725	53.93
626.051	53.85
626.377	53.92
626.703	53.71
627.029	53.62
627.354	53.19
627.68	53.01
628.006	53.25
628.332	53.07
628.658	52.97
628.983	52.88
629.309	53.11
629.634	53.06
629.96	53.23
630.285	52.99
630.611	52.62
630.936	52.69
631.262	52.35
631.587	51.88
631.912	51.69
632.237	51.09
632.562	51.02
632.887	51.31
633.213	51.16
633.538	51.29
633.863	51.1
634.187	51.46
634.512	51.24
634.837	51.53
635.162	51.39
635.487	51.26
635.811	51.61
636.136	51.3
636.461	51.32
636.785	51.32
637.11	51.6
637.434	51.56
637.758	51.44
638.083	51.63
638.407	51.58
638.731	51.27
639.056	51.34
639.38	50.99
639.704	51.62
640.028	52.25
640.352	53.01
640.676	53.55
641	53.56
641.324	53.61
641.648	53.14
641.972	53.1
642.295	52.68
642.619	52.52
642.943	52.74
643.266	53.25
643.59	53.44
643.913	53.68
644.237	53.65
644.56	53.3
644.884	53.05
645.207	53.02
645.53	52.92
645.854	52.76
646.177	52.58
646.5	52.61
646.823	52.79
647.146	53.13
647.469	53.54
647.792	53.06
648.115	52.54
648.438	53.09
648.761	54.69
649.084	56.04
649.406	56.48
649.729	55.95
650.052	55.63
650.374	55.23
650.697	55.22
651.019	55.29
651.342	55.29
651.664	55.28
651.987	55.25
652.309	55.34
652.631	55.4
652.953	55.39
653.276	55.39
653.598	55.4
653.92	55.52
654.242	55.51
654.564	55.6
654.886	55.63
655.208	55.67
655.53	55.68
655.851	55.68
656.173	55.77
656.495	55.68
