Data from T2__Reflection__27__00-19-07-819.txt Node

Date: Sat Jun 05 00:19:07 CEST 2021
User: mabdelazizm
Spectrometer: FLMS18565
Trigger mode: 0
Integration Time (sec): 2.000000E0
Scans to average: 1
Electric dark correction enabled: true
Nonlinearity correction enabled: false
Boxcar width: 12
XAxis mode: Wavelengths
Number of Pixels in Spectrum: 2048
>>>>>Begin Spectral Data<<<<<
179.071	102.64
179.452	116.47
179.833	124.77
180.214	122.78
180.595	268.52
180.977	979.41
181.358	268.58
181.739	338.57
182.12	192.4
182.501	199.65
182.882	225.92
183.262	402.63
183.643	-655.48
184.024	-136.64
184.405	-23.4
184.786	-8.22
185.166	27.24
185.547	43.46
185.927	36.95
186.308	39.96
186.689	34.89
187.069	30.12
187.449	25.01
187.83	25.56
188.21	14.84
188.59	13.12
188.971	11.9
189.351	7.05
189.731	6.03
190.111	3.03
190.491	3.29
190.871	-1.11
191.251	4.91
191.631	11.62
192.011	7.5
192.391	7.21
192.771	12.66
193.151	7.83
193.531	8.78
193.91	7.34
194.29	8.65
194.67	2.38
195.049	1.86
195.429	0.03
195.808	-2.2
196.188	-5.61
196.567	-7.42
196.946	-4.34
197.326	-3.25
197.705	-1.67
198.084	-0.54
198.464	-1.27
198.843	0.9
199.222	-0.21
199.601	1.67
199.98	0.39
200.359	2.3
200.738	5.1
201.117	0.09
201.496	2.02
201.875	-0.18
202.254	-1.87
202.632	-0.62
203.011	0.95
203.39	0.66
203.768	0.59
204.147	4.7
204.525	1.77
204.904	2.57
205.282	3.58
205.661	5.28
206.039	5.74
206.418	3.06
206.796	4.69
207.174	3.1
207.552	1.5
207.931	-0.85
208.309	-1.85
208.687	-1.73
209.065	-2.22
209.443	-2.68
209.821	-1.94
210.199	-5.03
210.577	-3
210.954	-2.6
211.332	-2.02
211.71	-2.91
212.088	-2.58
212.465	-5.11
212.843	-5
213.221	-3.93
213.598	-5.72
213.976	-5
214.353	-4.68
214.731	-3.59
215.108	-4.29
215.485	-4.25
215.863	-6.63
216.24	-8.27
216.617	-6.55
216.994	-4.75
217.371	-2.83
217.749	-2.45
218.126	-1.53
218.503	-1.48
218.88	-1.11
219.256	-0.55
219.633	-0.58
220.01	-1.93
220.387	-1.4
220.764	-1.77
221.14	-1.57
221.517	-1.14
221.894	-1.27
222.27	-1.48
222.647	-1.62
223.023	-1.52
223.4	-1.2
223.776	-2.18
224.153	-3.21
224.529	-1.99
224.905	-1.13
225.282	0.01
225.658	-0.13
226.034	0.32
226.41	0.01
226.786	0
227.162	-0.13
227.538	-0.1
227.914	-0.37
228.29	-0.06
228.666	-0.52
229.042	-0.27
229.418	0.15
229.793	0.41
230.169	0.61
230.545	0.59
230.92	0.7
231.296	0.68
231.672	0.64
232.047	0.59
232.422	0.58
232.798	0.59
233.173	0.89
233.549	1.37
233.924	1.4
234.299	1.18
234.674	1.3
235.05	1.62
235.425	1.47
235.8	1.46
236.175	1.42
236.55	1.45
236.925	1.52
237.3	1.6
237.675	1.66
238.049	1.8
238.424	1.85
238.799	1.8
239.174	1.86
239.548	1.86
239.923	1.87
240.297	1.77
240.672	1.94
241.046	1.9
241.421	1.94
241.795	1.91
242.17	1.92
242.544	1.91
242.918	1.75
243.293	1.65
243.667	1.67
244.041	1.61
244.415	1.56
244.789	1.56
245.163	1.6
245.537	1.62
245.911	1.67
246.285	1.59
246.659	1.6
247.033	1.59
247.406	1.5
247.78	1.48
248.154	1.52
248.528	1.45
248.901	1.48
249.275	1.53
249.648	1.53
250.022	1.44
250.395	1.5
250.769	1.45
251.142	1.54
251.515	1.58
251.888	1.6
252.262	1.65
252.635	1.66
253.008	1.62
253.381	1.58
253.754	1.55
254.127	1.56
254.5	1.55
254.873	1.52
255.246	1.48
255.619	1.5
255.992	1.52
256.364	1.51
256.737	1.53
257.11	1.56
257.483	1.56
257.855	1.54
258.228	1.51
258.6	1.5
258.973	1.56
259.345	1.65
259.718	1.61
260.09	1.63
260.462	1.54
260.834	1.55
261.207	1.5
261.579	1.46
261.951	1.45
262.323	1.47
262.695	1.51
263.067	1.54
263.439	1.53
263.811	1.53
264.183	1.57
264.555	1.57
264.927	1.56
265.298	1.58
265.67	1.54
266.042	1.58
266.413	1.56
266.785	1.55
267.156	1.56
267.528	1.58
267.899	1.56
268.271	1.5
268.642	1.44
269.013	1.38
269.385	1.32
269.756	1.29
270.127	1.31
270.498	1.33
270.87	1.34
271.241	1.35
271.612	1.36
271.983	1.37
272.354	1.39
272.724	1.38
273.095	1.38
273.466	1.36
273.837	1.36
274.208	1.35
274.578	1.28
274.949	1.29
275.32	1.24
275.69	1.24
276.061	1.29
276.431	1.3
276.802	1.27
277.172	1.22
277.542	1.22
277.913	1.23
278.283	1.3
278.653	1.35
279.023	1.4
279.394	1.37
279.764	1.32
280.134	1.28
280.504	1.35
280.874	1.35
281.244	1.34
281.614	1.27
281.983	1.27
282.353	1.26
282.723	1.25
283.093	1.27
283.462	1.31
283.832	1.33
284.202	1.32
284.571	1.28
284.941	1.26
285.31	1.23
285.68	1.24
286.049	1.19
286.418	1.22
286.788	1.25
287.157	1.21
287.526	1.23
287.895	1.2
288.264	1.19
288.633	1.22
289.002	1.24
289.371	1.27
289.74	1.18
290.109	1.18
290.478	1.18
290.847	1.18
291.216	1.16
291.585	1.15
291.953	1.1
292.322	1.12
292.691	1.08
293.059	1.05
293.428	1.05
293.796	1.1
294.165	1.08
294.533	1.01
294.901	0.97
295.27	0.99
295.638	0.98
296.006	0.93
296.374	0.92
296.743	0.88
297.111	0.86
297.479	0.89
297.847	0.82
298.215	0.83
298.583	0.79
298.95	0.79
299.318	0.79
299.686	0.8
300.054	0.8
300.422	0.79
300.789	0.81
301.157	0.81
301.525	0.81
301.892	0.81
302.26	0.84
302.627	0.82
302.994	0.83
303.362	0.85
303.729	0.88
304.097	0.92
304.464	0.97
304.831	0.97
305.198	1.01
305.565	1.04
305.932	1.01
306.299	1.04
306.666	1.06
307.033	1.09
307.4	1.08
307.767	1.11
308.134	1.11
308.501	1.1
308.867	1.11
309.234	1.11
309.601	1.16
309.967	1.14
310.334	1.17
310.701	1.15
311.067	1.18
311.433	1.18
311.8	1.2
312.166	1.16
312.533	1.15
312.899	1.12
313.265	1.05
313.631	0.98
313.997	0.98
314.363	0.96
314.729	0.88
315.096	0.88
315.461	0.86
315.827	0.78
316.193	0.78
316.559	0.77
316.925	0.8
317.291	0.84
317.656	0.8
318.022	0.77
318.388	0.75
318.753	0.72
319.119	0.74
319.484	0.72
319.85	0.69
320.215	0.62
320.581	0.66
320.946	0.66
321.311	0.68
321.676	0.61
322.042	0.62
322.407	0.65
322.772	0.76
323.137	0.73
323.502	0.75
323.867	0.85
324.232	0.8
324.597	0.85
324.962	0.86
325.327	0.84
325.691	0.89
326.056	0.9
326.421	0.82
326.785	0.84
327.15	0.83
327.514	0.87
327.879	0.83
328.243	0.8
328.608	0.81
328.972	0.81
329.337	0.83
329.701	0.8
330.065	0.71
330.429	0.66
330.794	0.7
331.158	0.74
331.522	0.71
331.886	0.65
332.25	0.66
332.614	0.64
332.978	0.55
333.342	0.6
333.705	0.57
334.069	0.55
334.433	0.56
334.797	0.51
335.16	0.5
335.524	0.5
335.887	0.49
336.251	0.48
336.614	0.45
336.978	0.43
337.341	0.45
337.705	0.39
338.068	0.46
338.431	0.48
338.794	0.49
339.158	0.55
339.521	0.6
339.884	0.58
340.247	0.51
340.61	0.54
340.973	0.49
341.336	0.44
341.699	0.42
342.062	0.48
342.424	0.5
342.787	0.48
343.15	0.44
343.512	0.44
343.875	0.46
344.238	0.44
344.6	0.49
344.963	0.49
345.325	0.45
345.688	0.46
346.05	0.48
346.412	0.45
346.775	0.51
347.137	0.48
347.499	0.44
347.861	0.44
348.223	0.41
348.585	0.43
348.947	0.5
349.309	0.53
349.671	0.49
350.033	0.58
350.395	0.59
350.757	0.66
351.118	0.62
351.48	0.6
351.842	0.61
352.203	0.66
352.565	0.61
352.927	0.59
353.288	0.59
353.65	0.57
354.011	0.56
354.372	0.65
354.734	0.68
355.095	0.69
355.456	0.64
355.817	0.54
356.179	0.48
356.54	0.43
356.901	0.35
357.262	0.37
357.623	0.29
357.984	0.27
358.345	0.24
358.705	0.24
359.066	0.15
359.427	0.19
359.788	0.14
360.148	0.14
360.509	0.19
360.87	0.27
361.23	0.33
361.591	0.44
361.951	0.42
362.312	0.41
362.672	0.43
363.032	0.44
363.393	0.44
363.753	0.46
364.113	0.38
364.473	0.47
364.833	0.52
365.193	0.51
365.553	0.57
365.913	0.54
366.273	0.56
366.633	0.63
366.993	0.65
367.353	0.66
367.713	0.73
368.072	0.75
368.432	0.81
368.792	0.8
369.151	0.78
369.511	0.68
369.87	0.61
370.23	0.58
370.589	0.46
370.949	0.43
371.308	0.44
371.667	0.37
372.027	0.36
372.386	0.3
372.745	0.2
373.104	0.35
373.463	0.33
373.822	0.32
374.181	0.39
374.54	0.38
374.899	0.42
375.258	0.45
375.617	0.42
375.975	0.32
376.334	0.32
376.693	0.29
377.052	0.26
377.41	0.16
377.769	0.13
378.127	0.13
378.486	0.24
378.844	0.26
379.202	0.23
379.561	0.29
379.919	0.34
380.277	0.31
380.636	0.38
380.994	0.35
381.352	0.33
381.71	0.39
382.068	0.35
382.426	0.33
382.784	0.38
383.142	0.4
383.5	0.44
383.857	0.45
384.215	0.4
384.573	0.4
384.931	0.47
385.288	0.5
385.646	0.49
386.003	0.54
386.361	0.61
386.718	0.63
387.076	0.64
387.433	0.59
387.791	0.61
388.148	0.62
388.505	0.58
388.862	0.61
389.22	0.67
389.577	0.63
389.934	0.69
390.291	0.72
390.648	0.71
391.005	0.73
391.362	0.77
391.718	0.77
392.075	0.79
392.432	0.73
392.789	0.77
393.145	0.77
393.502	0.79
393.859	0.72
394.215	0.73
394.572	0.77
394.928	0.75
395.285	0.66
395.641	0.74
395.997	0.78
396.354	0.74
396.71	0.76
397.066	0.73
397.422	0.76
397.778	0.67
398.134	0.64
398.491	0.66
398.846	0.62
399.202	0.62
399.558	0.61
399.914	0.55
400.27	0.55
400.626	0.57
400.981	0.48
401.337	0.57
401.693	0.49
402.048	0.51
402.404	0.55
402.759	0.61
403.115	0.61
403.47	0.61
403.826	0.62
404.181	0.68
404.536	0.59
404.892	0.58
405.247	0.55
405.602	0.54
405.957	0.6
406.312	0.59
406.667	0.66
407.022	0.61
407.377	0.52
407.732	0.55
408.087	0.6
408.442	0.69
408.796	0.7
409.151	0.72
409.506	0.63
409.86	0.67
410.215	0.72
410.57	0.76
410.924	0.81
411.279	0.74
411.633	0.82
411.987	0.8
412.342	0.86
412.696	0.88
413.05	0.92
413.404	1.03
413.758	1.14
414.113	1.2
414.467	1.2
414.821	1.18
415.175	1.26
415.529	1.22
415.882	1.34
416.236	1.44
416.59	1.45
416.944	1.49
417.298	1.43
417.651	1.44
418.005	1.41
418.358	1.5
418.712	1.45
419.065	1.38
419.419	1.42
419.772	1.38
420.126	1.38
420.479	1.39
420.832	1.37
421.185	1.35
421.539	1.32
421.892	1.31
422.245	1.24
422.598	1.19
422.951	1.25
423.304	1.28
423.657	1.32
424.01	1.23
424.363	1.26
424.715	1.24
425.068	1.27
425.421	1.28
425.773	1.22
426.126	1.3
426.479	1.31
426.831	1.39
427.184	1.4
427.536	1.51
427.889	1.54
428.241	1.52
428.593	1.5
428.945	1.61
429.298	1.55
429.65	1.55
430.002	1.46
430.354	1.46
430.706	1.45
431.058	1.45
431.41	1.36
431.762	1.33
432.114	1.26
432.466	1.21
432.817	1.26
433.169	1.31
433.521	1.37
433.872	1.39
434.224	1.41
434.576	1.45
434.927	1.35
435.279	1.39
435.63	1.28
435.981	1.23
436.333	1.2
436.684	1.14
437.035	1.18
437.387	1.23
437.738	1.16
438.089	1.12
438.44	1.15
438.791	1.2
439.142	1.2
439.493	1.17
439.844	1.13
440.195	1.18
440.545	1.31
440.896	1.39
441.247	1.41
441.598	1.36
441.948	1.36
442.299	1.24
442.649	1.12
443	1.02
443.35	0.98
443.701	0.94
444.051	0.92
444.401	0.97
444.752	0.94
445.102	0.93
445.452	0.87
445.802	0.88
446.152	0.87
446.502	0.9
446.852	0.9
447.202	0.82
447.552	0.82
447.902	0.9
448.252	0.93
448.602	1.33
448.952	1.29
449.301	1.15
449.651	1.16
450.001	1.18
450.35	1.22
450.7	1.22
451.049	1.21
451.399	1.24
451.748	1.35
452.097	1.33
452.447	1.38
452.796	1.36
453.145	1.5
453.494	1.58
453.843	1.56
454.193	1.66
454.542	1.7
454.891	1.73
455.239	1.71
455.588	1.77
455.937	1.94
456.286	2
456.635	1.88
456.984	1.91
457.332	1.55
457.681	1.61
458.03	1.67
458.378	1.7
458.727	1.78
459.075	1.79
459.423	1.83
459.772	1.88
460.12	1.84
460.468	1.9
460.817	1.93
461.165	2.02
461.513	2.06
461.861	2.07
462.209	1.98
462.557	1.99
462.905	1.9
463.253	1.87
463.601	1.9
463.949	1.94
464.297	1.96
464.644	1.86
464.992	1.79
465.34	1.89
465.687	1.87
466.035	1.88
466.383	1.81
466.73	1.77
467.078	1.78
467.425	1.57
467.772	1.59
468.12	1.51
468.467	1.6
468.814	1.66
469.161	1.6
469.508	1.61
469.856	1.49
470.203	1.48
470.55	1.29
470.897	1.32
471.243	1.39
471.59	1.45
471.937	1.41
472.284	1.39
472.631	1.32
472.977	1.3
473.324	1.35
473.671	1.38
474.017	1.35
474.364	1.32
474.71	1.29
475.057	1.32
475.403	1.33
475.749	1.25
476.096	1.36
476.442	1.4
476.788	1.37
477.134	1.37
477.48	1.31
477.826	1.31
478.172	1.32
478.518	1.3
478.864	1.31
479.21	1.39
479.556	1.33
479.902	1.32
480.248	1.36
480.593	1.36
480.939	1.36
481.285	1.42
481.63	1.43
481.976	1.41
482.321	1.38
482.667	1.4
483.012	1.44
483.357	1.45
483.703	1.5
484.048	1.57
484.393	1.7
484.738	1.74
485.084	1.79
485.429	1.87
485.774	1.87
486.119	2.02
486.464	2.17
486.808	2.23
487.153	2.33
487.498	2.41
487.843	2.47
488.188	2.64
488.532	2.75
488.877	2.89
489.222	3.09
489.566	3.2
489.911	3.32
490.255	3.51
490.6	3.71
490.944	3.94
491.288	4.08
491.633	4.22
491.977	4.48
492.321	4.62
492.665	4.78
493.009	4.92
493.353	5.03
493.697	5.13
494.041	5.4
494.385	5.62
494.729	5.75
495.073	5.88
495.417	6.13
495.76	6.36
496.104	6.58
496.448	6.78
496.791	6.93
497.135	7.11
497.479	7.22
497.822	7.34
498.165	7.54
498.509	7.71
498.852	7.81
499.196	7.9
499.539	8.03
499.882	8.2
500.225	8.34
500.568	8.4
500.911	8.56
501.254	8.72
501.597	8.77
501.94	8.85
502.283	8.96
502.626	8.94
502.969	8.98
503.312	9.02
503.654	9.05
503.997	9.08
504.34	9.14
504.682	9.15
505.025	9.27
505.367	9.4
505.71	9.39
506.052	9.4
506.395	9.42
506.737	9.41
507.079	9.38
507.421	9.36
507.764	9.41
508.106	9.38
508.448	9.38
508.79	9.39
509.132	9.38
509.474	9.34
509.816	9.24
510.158	9.24
510.499	9.35
510.841	9.31
511.183	9.31
511.525	9.3
511.866	9.33
512.208	9.28
512.549	9.18
512.891	9.17
513.232	9.14
513.574	9.06
513.915	8.95
514.256	8.96
514.598	9
514.939	9.03
515.28	9
515.621	9.06
515.962	9.09
516.303	9.17
516.644	9.16
516.985	9.12
517.326	9.06
517.667	9.05
518.008	9
518.349	9.05
518.69	9.05
519.03	8.96
519.371	9.01
519.712	9.06
520.052	9.07
520.393	9.19
520.733	9.27
521.074	9.39
521.414	9.41
521.754	9.43
522.095	9.43
522.435	9.39
522.775	9.39
523.115	9.26
523.455	9.08
523.795	9.14
524.135	9.1
524.475	9.12
524.815	8.98
525.155	9.01
525.495	9.02
525.835	9.07
526.175	8.99
526.514	8.99
526.854	8.91
527.194	8.87
527.533	8.81
527.873	8.78
528.212	8.74
528.552	8.69
528.891	8.51
529.23	8.39
529.57	8.35
529.909	8.27
530.248	8.24
530.587	8.17
530.927	8.19
531.266	8.23
531.605	8.25
531.944	8.36
532.283	8.25
532.621	8.15
532.96	8.09
533.299	8.05
533.638	7.9
533.977	7.83
534.315	7.87
534.654	7.89
534.992	7.88
535.331	7.79
535.67	7.87
536.008	7.85
536.346	7.79
536.685	7.77
537.023	7.71
537.361	7.64
537.7	7.63
538.038	7.51
538.376	7.5
538.714	7.43
539.052	7.37
539.39	7.32
539.728	7.3
540.066	7.33
540.404	7.27
540.741	7.29
541.079	7.35
541.417	7.31
541.755	7.33
542.092	7.42
542.43	7.43
542.767	7.31
543.105	7.34
543.442	7.32
543.78	7.38
544.117	7.24
544.454	7.26
544.792	7.21
545.129	7.2
545.466	7.23
545.803	7.32
546.14	7.28
546.477	7.32
546.814	7.27
547.151	7.19
547.488	7.24
547.825	7.21
548.162	7.12
548.499	7.16
548.835	7.18
549.172	7.12
549.509	7.09
549.845	7.12
550.182	7.26
550.518	7.24
550.855	7.36
551.191	7.36
551.528	7.35
551.864	7.38
552.2	7.45
552.537	7.54
552.873	7.58
553.209	7.65
553.545	7.68
553.881	7.71
554.217	7.79
554.553	7.95
554.889	8.1
555.225	8.3
555.561	8.53
555.896	8.55
556.232	8.63
556.568	8.66
556.903	8.67
557.239	8.73
557.575	8.76
557.91	8.8
558.245	8.94
558.581	8.84
558.916	8.93
559.252	8.9
559.587	9.07
559.922	9.12
560.257	9.17
560.592	9.2
560.928	9.21
561.263	9.16
561.598	9.29
561.933	9.28
562.267	9.36
562.602	9.28
562.937	9.31
563.272	9.22
563.607	9.18
563.941	9.19
564.276	9.24
564.611	9.39
564.945	9.46
565.28	9.63
565.614	9.65
565.949	9.82
566.283	9.95
566.617	9.92
566.951	9.98
567.286	10.07
567.62	10.12
567.954	10.07
568.288	10.13
568.622	10.15
568.956	10.15
569.29	10.25
569.624	10.36
569.958	10.45
570.292	10.5
570.626	10.55
570.959	10.62
571.293	10.73
571.627	10.85
571.96	10.89
572.294	10.92
572.627	10.95
572.961	10.99
573.294	11.08
573.627	11.02
573.961	11.1
574.294	11.11
574.627	11.12
574.961	11.24
575.294	11.31
575.627	11.38
575.96	11.49
576.293	11.56
576.626	11.58
576.959	11.64
577.292	11.69
577.624	11.71
577.957	11.75
578.29	11.75
578.623	11.8
578.955	11.86
579.288	11.96
579.62	11.96
579.953	11.95
580.285	11.99
580.618	12.06
580.95	12.07
581.282	12.1
581.615	12.16
581.947	12.3
582.279	12.32
582.611	12.44
582.943	12.55
583.275	12.57
583.607	12.72
583.939	12.76
584.271	12.79
584.603	12.83
584.935	12.87
585.267	12.91
585.598	12.98
585.93	13.11
586.262	13.26
586.593	13.3
586.925	13.32
587.256	13.39
587.588	13.41
587.919	13.44
588.25	13.52
588.582	13.62
588.913	13.7
589.244	13.89
589.575	13.95
589.907	14.03
590.238	14.11
590.569	14.25
590.9	14.21
591.231	14.27
591.562	14.36
591.892	14.41
592.223	14.57
592.554	14.61
592.885	14.7
593.215	14.87
593.546	14.88
593.877	15.07
594.207	15.06
594.538	15.14
594.868	15.3
595.198	15.39
595.529	15.48
595.859	15.56
596.189	15.75
596.52	15.86
596.85	15.96
597.18	15.99
597.51	16.09
597.84	16.19
598.17	16.31
598.5	16.33
598.83	16.46
599.16	16.7
599.489	16.82
599.819	17.01
600.149	17.02
600.479	17.03
600.808	17.16
601.138	17.22
601.467	17.34
601.797	17.6
602.126	17.63
602.456	17.79
602.785	17.86
603.114	17.81
603.443	17.96
603.773	18.09
604.102	18.29
604.431	18.34
604.76	18.52
605.089	18.66
605.418	18.75
605.747	18.92
606.076	19.08
606.405	19.08
606.733	19.18
607.062	19.32
607.391	19.34
607.72	19.44
608.048	19.47
608.377	19.57
608.705	19.78
609.034	19.95
609.362	20.24
609.69	20.46
610.019	20.58
610.347	20.84
610.675	20.98
611.004	21.08
611.332	21.37
611.66	21.59
611.988	21.79
612.316	21.97
612.644	22.07
612.972	22.04
613.3	22.06
613.627	22.28
613.955	22.31
614.283	22.41
614.611	22.68
614.938	22.9
615.266	23.05
615.593	23.13
615.921	23.35
616.248	23.61
616.576	24
616.903	24.27
617.23	24.56
617.558	24.88
617.885	25.07
618.212	25.27
618.539	25.38
618.866	25.5
619.193	25.67
619.52	25.81
619.847	26.06
620.174	26.15
620.501	26.22
620.828	26.47
621.155	26.88
621.481	27.24
621.808	27.47
622.135	27.74
622.461	27.98
622.788	27.87
623.114	28.25
623.441	28.31
623.767	28.81
624.093	29
624.42	29.23
624.746	29.6
625.072	29.77
625.398	29.88
625.725	29.94
626.051	30.2
626.377	30.43
626.703	30.68
627.029	31.02
627.354	31.35
627.68	31.43
628.006	31.18
628.332	31.41
628.658	31.38
628.983	31.41
629.309	31.45
629.634	31.74
629.96	32.02
630.285	31.79
630.611	31.94
630.936	32.41
631.262	32.36
631.587	32.41
631.912	31.98
632.237	31.67
632.562	31.7
632.887	31.54
633.213	31.56
633.538	31.77
633.863	31.84
634.187	31.95
634.512	32.05
634.837	32.09
635.162	32.1
635.487	32.28
635.811	32.47
636.136	33.27
636.461	33.36
636.785	33.63
637.11	34.16
637.434	34.33
637.758	34.37
638.083	34.8
638.407	35.29
638.731	35.34
639.056	35.74
639.38	35.51
639.704	35.99
640.028	36.45
640.352	37.13
640.676	37.16
641	37.15
641.324	37.03
641.648	37.42
641.972	37.55
642.295	37.59
642.619	37.7
642.943	37.71
643.266	37.35
643.59	37.05
643.913	37.4
644.237	37.12
644.56	37.03
644.884	36.74
645.207	36.92
645.53	36.86
645.854	36.75
646.177	36.51
646.5	36.26
646.823	36.24
647.146	36.08
647.469	36.23
647.792	36.07
648.115	36.1
648.438	36.48
648.761	37.93
649.084	39.29
649.406	40.07
649.729	40.19
650.052	40.42
650.374	40.33
650.697	40.45
651.019	40.62
651.342	40.86
651.664	41.08
651.987	41.12
652.309	41.13
652.631	41.19
652.953	41.3
653.276	41.3
653.598	41.36
653.92	41.45
654.242	41.58
654.564	41.66
654.886	41.69
655.208	41.7
655.53	41.94
655.851	41.99
656.173	42.23
656.495	42.16
656.816	41.86
657.138	41.64
657.46	41.7
657.781	42.07
658.103	42.85
658.424	43.8
658.746	44
659.067	43.83
659.388	43.38
659.709	43.14
660.031	43
660.352	43.16
660.673	43.58
660.994	43.02
661.315	43.08
661.636	43.27
661.957	43.19
662.278	43.21
662.599	43.4
662.919	43.03
663.24	43.15
663.561	42.34
663.881	42.39
664.202	41.26
664.523	41.06
664.843	40.13
665.164	40.11
665.484	40.29
665.804	40.05
666.125	38.72
666.445	38.64
666.765	39.12
667.085	38.96
667.405	39.9
667.726	39.69
668.046	40.18
668.366	39.98
