Data from T2__Reflection__30__00-21-43-814.txt Node

Date: Sat Jun 05 00:21:43 CEST 2021
User: mabdelazizm
Spectrometer: FLMS18565
Trigger mode: 0
Integration Time (sec): 2.000000E0
Scans to average: 1
Electric dark correction enabled: true
Nonlinearity correction enabled: false
Boxcar width: 12
XAxis mode: Wavelengths
Number of Pixels in Spectrum: 2048
>>>>>Begin Spectral Data<<<<<
179.071	103.67
179.452	111.71
179.833	151.15
180.214	164.56
180.595	270.19
180.977	745.59
181.358	111.73
181.739	230.71
182.12	137.01
182.501	142.83
182.882	157.24
183.262	311.84
183.643	-595.55
184.024	-84.75
184.405	-28.21
184.786	-39.22
185.166	-15.09
185.547	-8.89
185.927	-7.39
186.308	-10.67
186.689	-3.15
187.069	0.56
187.449	1.95
187.83	10.53
188.21	0.24
188.59	2.06
188.971	-2.74
189.351	2.49
189.731	4.98
190.111	-2.45
190.491	-7.33
190.871	-12.58
191.251	-3.33
191.631	1.11
192.011	-1.25
192.391	0.37
192.771	7.15
193.151	8.46
193.531	6.72
193.91	8.13
194.29	13.81
194.67	12.2
195.049	11.83
195.429	13.56
195.808	11.84
196.188	12.13
196.567	13.51
196.946	12.63
197.326	10.32
197.705	11.82
198.084	11.99
198.464	11.61
198.843	9.06
199.222	8.95
199.601	11.67
199.98	11.29
200.359	14.03
200.738	14.66
201.117	10.69
201.496	9.81
201.875	6.96
202.254	3.95
202.632	3.11
203.011	6.85
203.39	4.53
203.768	3.66
204.147	3.85
204.525	2.37
204.904	2.27
205.282	3.87
205.661	4.09
206.039	4.73
206.418	4.16
206.796	5.2
207.174	4.64
207.552	3.79
207.931	4.02
208.309	4.49
208.687	3.01
209.065	2.66
209.443	2.15
209.821	0.08
210.199	-3.51
210.577	1.44
210.954	4.7
211.332	6.18
211.71	7.41
212.088	6.68
212.465	3.55
212.843	6.34
213.221	8.69
213.598	7.19
213.976	7.36
214.353	7.98
214.731	8.56
215.108	7.06
215.485	5.45
215.863	3.89
216.24	3.09
216.617	4.92
216.994	4.91
217.371	4.22
217.749	4.34
218.126	5.15
218.503	3.49
218.88	3.96
219.256	3.36
219.633	4.54
220.01	2.08
220.387	2.03
220.764	1.05
221.14	0.07
221.517	0.53
221.894	-0.15
222.27	-0.66
222.647	-1.25
223.023	-0.39
223.4	0.3
223.776	-0.7
224.153	-1.71
224.529	-0.73
224.905	0.17
225.282	0.75
225.658	0.26
226.034	-0.22
226.41	0.19
226.786	0.86
227.162	0.73
227.538	0.93
227.914	0.7
228.29	0.72
228.666	0.6
229.042	0.44
229.418	0.56
229.793	0.67
230.169	0.85
230.545	1.04
230.92	1.04
231.296	1.11
231.672	1.37
232.047	1.1
232.422	0.95
232.798	0.86
233.173	0.94
233.549	1.25
233.924	1.01
234.299	0.89
234.674	1.05
235.05	1.23
235.425	1.24
235.8	1.06
236.175	1.01
236.55	1.1
236.925	1.1
237.3	1.18
237.675	1.23
238.049	1.35
238.424	1.37
238.799	1.42
239.174	1.45
239.548	1.46
239.923	1.39
240.297	1.28
240.672	1.35
241.046	1.24
241.421	1.29
241.795	1.28
242.17	1.28
242.544	1.33
242.918	1.24
243.293	1.24
243.667	1.19
244.041	1.19
244.415	1.23
244.789	1.23
245.163	1.28
245.537	1.29
245.911	1.29
246.285	1.18
246.659	1.19
247.033	1.2
247.406	1.17
247.78	1.21
248.154	1.23
248.528	1.16
248.901	1.21
249.275	1.22
249.648	1.24
250.022	1.19
250.395	1.22
250.769	1.2
251.142	1.27
251.515	1.35
251.888	1.37
252.262	1.42
252.635	1.44
253.008	1.44
253.381	1.4
253.754	1.35
254.127	1.39
254.5	1.4
254.873	1.38
255.246	1.37
255.619	1.43
255.992	1.47
256.364	1.44
256.737	1.44
257.11	1.45
257.483	1.47
257.855	1.47
258.228	1.42
258.6	1.43
258.973	1.58
259.345	1.67
259.718	1.65
260.09	1.71
260.462	1.65
260.834	1.62
261.207	1.59
261.579	1.58
261.951	1.6
262.323	1.61
262.695	1.68
263.067	1.75
263.439	1.74
263.811	1.74
264.183	1.75
264.555	1.74
264.927	1.71
265.298	1.71
265.67	1.72
266.042	1.78
266.413	1.8
266.785	1.83
267.156	1.85
267.528	1.9
267.899	1.89
268.271	1.76
268.642	1.74
269.013	1.73
269.385	1.66
269.756	1.67
270.127	1.66
270.498	1.68
270.87	1.68
271.241	1.69
271.612	1.69
271.983	1.64
272.354	1.62
272.724	1.6
273.095	1.58
273.466	1.58
273.837	1.59
274.208	1.63
274.578	1.6
274.949	1.6
275.32	1.56
275.69	1.49
276.061	1.48
276.431	1.45
276.802	1.39
277.172	1.38
277.542	1.39
277.913	1.37
278.283	1.4
278.653	1.46
279.023	1.48
279.394	1.5
279.764	1.45
280.134	1.43
280.504	1.47
280.874	1.43
281.244	1.45
281.614	1.39
281.983	1.42
282.353	1.4
282.723	1.42
283.093	1.42
283.462	1.38
283.832	1.37
284.202	1.39
284.571	1.33
284.941	1.35
285.31	1.33
285.68	1.34
286.049	1.33
286.418	1.35
286.788	1.39
287.157	1.34
287.526	1.29
287.895	1.28
288.264	1.25
288.633	1.27
289.002	1.28
289.371	1.28
289.74	1.24
290.109	1.31
290.478	1.25
290.847	1.28
291.216	1.26
291.585	1.26
291.953	1.23
292.322	1.25
292.691	1.25
293.059	1.25
293.428	1.21
293.796	1.25
294.165	1.25
294.533	1.25
294.901	1.23
295.27	1.26
295.638	1.22
296.006	1.14
296.374	1.15
296.743	1.15
297.111	1.12
297.479	1.1
297.847	1
298.215	1.02
298.583	0.99
298.95	0.94
299.318	0.93
299.686	0.99
300.054	0.96
300.422	0.94
300.789	0.97
301.157	0.95
301.525	0.92
301.892	0.94
302.26	0.93
302.627	0.89
302.994	0.85
303.362	0.83
303.729	0.81
304.097	0.83
304.464	0.82
304.831	0.84
305.198	0.89
305.565	0.92
305.932	0.92
306.299	0.9
306.666	0.96
307.033	0.98
307.4	0.97
307.767	0.98
308.134	0.97
308.501	0.94
308.867	0.95
309.234	0.94
309.601	0.98
309.967	0.92
310.334	0.96
310.701	0.96
311.067	0.94
311.433	0.96
311.8	1.01
312.166	1.06
312.533	1.08
312.899	1.09
313.265	1.08
313.631	1.09
313.997	1.1
314.363	1.09
314.729	1.04
315.096	1.04
315.461	1.06
315.827	1
316.193	1.03
316.559	1
316.925	1.04
317.291	1.05
317.656	1
318.022	0.98
318.388	1.01
318.753	0.95
319.119	0.98
319.484	0.94
319.85	0.92
320.215	0.89
320.581	0.9
320.946	0.88
321.311	0.87
321.676	0.8
322.042	0.8
322.407	0.79
322.772	0.8
323.137	0.76
323.502	0.77
323.867	0.8
324.232	0.77
324.597	0.79
324.962	0.82
325.327	0.78
325.691	0.81
326.056	0.78
326.421	0.79
326.785	0.8
327.15	0.79
327.514	0.74
327.879	0.71
328.243	0.7
328.608	0.71
328.972	0.69
329.337	0.68
329.701	0.71
330.065	0.68
330.429	0.63
330.794	0.64
331.158	0.68
331.522	0.66
331.886	0.64
332.25	0.64
332.614	0.58
332.978	0.55
333.342	0.62
333.705	0.55
334.069	0.51
334.433	0.53
334.797	0.56
335.16	0.56
335.524	0.55
335.887	0.56
336.251	0.54
336.614	0.54
336.978	0.53
337.341	0.55
337.705	0.53
338.068	0.56
338.431	0.62
338.794	0.55
339.158	0.59
339.521	0.59
339.884	0.63
340.247	0.56
340.61	0.59
340.973	0.55
341.336	0.54
341.699	0.56
342.062	0.55
342.424	0.54
342.787	0.53
343.15	0.47
343.512	0.43
343.875	0.36
344.238	0.39
344.6	0.4
344.963	0.42
345.325	0.4
345.688	0.43
346.05	0.44
346.412	0.42
346.775	0.45
347.137	0.47
347.499	0.46
347.861	0.46
348.223	0.41
348.585	0.41
348.947	0.4
349.309	0.39
349.671	0.31
350.033	0.38
350.395	0.39
350.757	0.45
351.118	0.41
351.48	0.35
351.842	0.37
352.203	0.48
352.565	0.47
352.927	0.52
353.288	0.53
353.65	0.54
354.011	0.51
354.372	0.55
354.734	0.53
355.095	0.55
355.456	0.47
355.817	0.39
356.179	0.36
356.54	0.27
356.901	0.26
357.262	0.26
357.623	0.27
357.984	0.28
358.345	0.35
358.705	0.4
359.066	0.41
359.427	0.44
359.788	0.37
360.148	0.44
360.509	0.47
360.87	0.45
361.23	0.42
361.591	0.48
361.951	0.45
362.312	0.43
362.672	0.42
363.032	0.47
363.393	0.47
363.753	0.53
364.113	0.52
364.473	0.59
364.833	0.65
365.193	0.6
365.553	0.71
365.913	0.68
366.273	0.71
366.633	0.78
366.993	0.72
367.353	0.65
367.713	0.62
368.072	0.63
368.432	0.61
368.792	0.62
369.151	0.58
369.511	0.58
369.87	0.63
370.23	0.64
370.589	0.63
370.949	0.63
371.308	0.63
371.667	0.6
372.027	0.58
372.386	0.58
372.745	0.5
373.104	0.5
373.463	0.53
373.822	0.49
374.181	0.54
374.54	0.54
374.899	0.63
375.258	0.65
375.617	0.6
375.975	0.63
376.334	0.66
376.693	0.65
377.052	0.59
377.41	0.52
377.769	0.51
378.127	0.51
378.486	0.56
378.844	0.57
379.202	0.54
379.561	0.5
379.919	0.5
380.277	0.47
380.636	0.48
380.994	0.4
381.352	0.38
381.71	0.44
382.068	0.48
382.426	0.47
382.784	0.47
383.142	0.52
383.5	0.47
383.857	0.44
384.215	0.35
384.573	0.3
384.931	0.32
385.288	0.29
385.646	0.31
386.003	0.35
386.361	0.43
386.718	0.45
387.076	0.49
387.433	0.46
387.791	0.48
388.148	0.5
388.505	0.47
388.862	0.45
389.22	0.49
389.577	0.46
389.934	0.49
390.291	0.47
390.648	0.44
391.005	0.44
391.362	0.46
391.718	0.52
392.075	0.43
392.432	0.43
392.789	0.48
393.145	0.51
393.502	0.58
393.859	0.57
394.215	0.61
394.572	0.61
394.928	0.55
395.285	0.53
395.641	0.51
395.997	0.47
396.354	0.43
396.71	0.44
397.066	0.42
397.422	0.46
397.778	0.48
398.134	0.45
398.491	0.41
398.846	0.45
399.202	0.47
399.558	0.42
399.914	0.35
400.27	0.32
400.626	0.31
400.981	0.27
401.337	0.33
401.693	0.23
402.048	0.26
402.404	0.18
402.759	0.17
403.115	0.17
403.47	0.23
403.826	0.25
404.181	0.25
404.536	0.21
404.892	0.23
405.247	0.24
405.602	0.15
405.957	0.17
406.312	0.16
406.667	0.23
407.022	0.24
407.377	0.27
407.732	0.31
408.087	0.31
408.442	0.34
408.796	0.37
409.151	0.44
409.506	0.42
409.86	0.46
410.215	0.47
410.57	0.5
410.924	0.45
411.279	0.48
411.633	0.54
411.987	0.58
412.342	0.55
412.696	0.52
413.05	0.57
413.404	0.65
413.758	0.77
414.113	0.77
414.467	0.78
414.821	0.74
415.175	0.82
415.529	0.74
415.882	0.76
416.236	0.8
416.59	0.79
416.944	0.8
417.298	0.85
417.651	0.89
418.005	0.87
418.358	0.94
418.712	1.01
419.065	0.98
419.419	0.96
419.772	0.99
420.126	0.97
420.479	0.91
420.832	0.84
421.185	0.89
421.539	0.88
421.892	0.82
422.245	0.75
422.598	0.67
422.951	0.72
423.304	0.7
423.657	0.73
424.01	0.61
424.363	0.7
424.715	0.72
425.068	0.78
425.421	0.79
425.773	0.73
426.126	0.74
426.479	0.7
426.831	0.61
427.184	0.59
427.536	0.55
427.889	0.51
428.241	0.61
428.593	0.6
428.945	0.6
429.298	0.63
429.65	0.65
430.002	0.54
430.354	0.55
430.706	0.58
431.058	0.67
431.41	0.66
431.762	0.56
432.114	0.54
432.466	0.56
432.817	0.61
433.169	0.55
433.521	0.5
433.872	0.47
434.224	0.48
434.576	0.53
434.927	0.46
435.279	0.48
435.63	0.52
435.981	0.46
436.333	0.53
436.684	0.57
437.035	0.5
437.387	0.57
437.738	0.56
438.089	0.58
438.44	0.58
438.791	0.56
439.142	0.55
439.493	0.51
439.844	0.41
440.195	0.42
440.545	0.57
440.896	0.7
441.247	0.74
441.598	0.71
441.948	0.74
442.299	0.69
442.649	0.61
443	0.54
443.35	0.55
443.701	0.5
444.051	0.55
444.401	0.56
444.752	0.51
445.102	0.46
445.452	0.42
445.802	0.43
446.152	0.44
446.502	0.54
446.852	0.52
447.202	0.51
447.552	0.6
447.902	0.57
448.252	0.61
448.602	0.98
448.952	0.88
449.301	0.9
449.651	0.87
450.001	0.8
450.35	0.86
450.7	0.85
451.049	0.85
451.399	0.9
451.748	0.93
452.097	0.93
452.447	0.93
452.796	0.87
453.145	0.92
453.494	1
453.843	0.88
454.193	0.95
454.542	0.95
454.891	0.87
455.239	0.77
455.588	0.72
455.937	0.78
456.286	0.85
456.635	0.91
456.984	0.88
457.332	0.53
457.681	0.69
458.03	0.63
458.378	0.59
458.727	0.69
459.075	0.63
459.423	0.64
459.772	0.59
460.12	0.57
460.468	0.66
460.817	0.67
461.165	0.71
461.513	0.73
461.861	0.79
462.209	0.75
462.557	0.78
462.905	0.66
463.253	0.6
463.601	0.64
463.949	0.7
464.297	0.78
464.644	0.79
464.992	0.75
465.34	0.76
465.687	0.85
466.035	0.86
466.383	0.72
466.73	0.62
467.078	0.64
467.425	0.58
467.772	0.62
468.12	0.56
468.467	0.66
468.814	0.71
469.161	0.65
469.508	0.64
469.856	0.67
470.203	0.67
470.55	0.53
470.897	0.54
471.243	0.65
471.59	0.73
471.937	0.82
472.284	0.89
472.631	0.89
472.977	0.86
473.324	0.85
473.671	0.86
474.017	0.83
474.364	0.77
474.71	0.79
475.057	0.81
475.403	0.88
475.749	0.89
476.096	0.91
476.442	0.97
476.788	1
477.134	1.05
477.48	0.94
477.826	0.95
478.172	0.96
478.518	0.9
478.864	0.92
479.21	1
479.556	1.03
479.902	1
480.248	1.05
480.593	1.04
480.939	0.99
481.285	1.04
481.63	1.08
481.976	0.99
482.321	0.94
482.667	0.94
483.012	1
483.357	1
483.703	1.03
484.048	1.04
484.393	1.09
484.738	1.12
485.084	1.09
485.429	1.12
485.774	1.14
486.119	1.21
486.464	1.21
486.808	1.22
487.153	1.35
487.498	1.41
487.843	1.42
488.188	1.47
488.532	1.5
488.877	1.56
489.222	1.62
489.566	1.71
489.911	1.75
490.255	1.83
490.6	1.99
490.944	2.11
491.288	2.23
491.633	2.31
491.977	2.49
492.321	2.61
492.665	2.73
493.009	2.81
493.353	2.88
493.697	3.04
494.041	3.18
494.385	3.3
494.729	3.45
495.073	3.64
495.417	3.85
495.76	4.02
496.104	4.14
496.448	4.35
496.791	4.49
497.135	4.72
497.479	4.85
497.822	5
498.165	5.19
498.509	5.44
498.852	5.58
499.196	5.77
499.539	5.96
499.882	6.19
500.225	6.37
500.568	6.52
500.911	6.73
501.254	6.95
501.597	7.11
501.94	7.24
502.283	7.33
502.626	7.5
502.969	7.67
503.312	7.83
503.654	7.99
503.997	8.12
504.34	8.27
504.682	8.47
505.025	8.63
505.367	8.83
505.71	8.91
506.052	9.02
506.395	9.12
506.737	9.27
507.079	9.29
507.421	9.42
507.764	9.55
508.106	9.72
508.448	9.87
508.79	9.94
509.132	10.03
509.474	10.09
509.816	10.14
510.158	10.23
510.499	10.46
510.841	10.67
511.183	10.75
511.525	10.79
511.866	10.91
512.208	10.98
512.549	11.06
512.891	11.09
513.232	11.16
513.574	11.18
513.915	11.17
514.256	11.31
514.598	11.41
514.939	11.54
515.28	11.5
515.621	11.57
515.962	11.64
516.303	11.64
516.644	11.61
516.985	11.6
517.326	11.64
517.667	11.65
518.008	11.72
518.349	11.8
518.69	11.85
519.03	11.8
519.371	11.79
519.712	11.78
520.052	11.82
520.393	11.92
520.733	11.94
521.074	11.95
521.414	11.98
521.754	11.97
522.095	12.03
522.435	12.03
522.775	11.98
523.115	11.9
523.455	11.83
523.795	11.92
524.135	11.91
524.475	11.93
524.815	11.9
525.155	11.87
525.495	11.92
525.835	11.93
526.175	11.89
526.514	11.85
526.854	11.73
527.194	11.72
527.533	11.72
527.873	11.73
528.212	11.78
528.552	11.73
528.891	11.61
529.23	11.61
529.57	11.64
529.909	11.6
530.248	11.53
530.587	11.43
530.927	11.41
531.266	11.41
531.605	11.4
531.944	11.43
532.283	11.35
532.621	11.28
532.96	11.33
533.299	11.28
533.638	11.22
533.977	11.14
534.315	11.19
534.654	11.22
534.992	11.16
535.331	11.15
535.67	11.1
536.008	11.08
536.346	10.97
536.685	10.93
537.023	10.92
537.361	10.92
537.7	10.86
538.038	10.83
538.376	10.86
538.714	10.81
539.052	10.78
539.39	10.78
539.728	10.84
540.066	10.93
540.404	10.84
540.741	10.8
541.079	10.87
541.417	10.8
541.755	10.89
542.092	10.9
542.43	10.85
542.767	10.75
543.105	10.68
543.442	10.7
543.78	10.74
544.117	10.72
544.454	10.72
544.792	10.7
545.129	10.72
545.466	10.79
545.803	10.8
546.14	10.72
546.477	10.63
546.814	10.57
547.151	10.56
547.488	10.54
547.825	10.61
548.162	10.49
548.499	10.38
548.835	10.47
549.172	10.51
549.509	10.45
549.845	10.32
550.182	10.37
550.518	10.39
550.855	10.38
551.191	10.38
551.528	10.43
551.864	10.42
552.2	10.47
552.537	10.56
552.873	10.58
553.209	10.58
553.545	10.59
553.881	10.59
554.217	10.59
554.553	10.69
554.889	10.75
555.225	10.82
555.561	10.93
555.896	10.96
556.232	10.88
556.568	10.89
556.903	10.97
557.239	10.88
557.575	10.85
557.91	10.94
558.245	11.18
558.581	11.08
558.916	11.16
559.252	11.18
559.587	11.24
559.922	11.22
560.257	11.36
560.592	11.35
560.928	11.29
561.263	11.22
561.598	11.41
561.933	11.44
562.267	11.54
562.602	11.59
562.937	11.64
563.272	11.71
563.607	11.79
563.941	11.93
564.276	12.05
564.611	12.24
564.945	12.33
565.28	12.53
565.614	12.65
565.949	12.77
566.283	12.78
566.617	12.76
566.951	12.85
567.286	12.91
567.62	12.97
567.954	12.98
568.288	13.08
568.622	13.02
568.956	13.05
569.29	13.12
569.624	13.22
569.958	13.22
570.292	13.22
570.626	13.09
570.959	13.06
571.293	13.13
571.627	13.27
571.96	13.26
572.294	13.23
572.627	13.21
572.961	13.26
573.294	13.28
573.627	13.27
573.961	13.31
574.294	13.38
574.627	13.47
574.961	13.56
575.294	13.64
575.627	13.69
575.96	13.8
576.293	13.84
576.626	13.89
576.959	13.95
577.292	13.94
577.624	14
577.957	14.01
578.29	14.09
578.623	14.13
578.955	14.31
579.288	14.43
579.62	14.45
579.953	14.4
580.285	14.48
580.618	14.61
580.95	14.74
581.282	14.74
581.615	14.92
581.947	14.94
582.279	14.99
582.611	15.07
582.943	15.18
583.275	15.16
583.607	15.3
583.939	15.42
584.271	15.44
584.603	15.57
584.935	15.61
585.267	15.64
585.598	15.79
585.93	15.87
586.262	15.97
586.593	16.05
586.925	16.08
587.256	16.11
587.588	16.18
587.919	16.25
588.25	16.32
588.582	16.46
588.913	16.44
589.244	16.43
589.575	16.58
589.907	16.54
590.238	16.57
590.569	16.71
590.9	16.77
591.231	16.9
591.562	17.05
591.892	17.08
592.223	17.17
592.554	17.29
592.885	17.39
593.215	17.46
593.546	17.57
593.877	17.63
594.207	17.8
594.538	17.95
594.868	18.02
595.198	18.18
595.529	18.25
595.859	18.36
596.189	18.56
596.52	18.62
596.85	18.7
597.18	18.82
597.51	18.98
597.84	19.02
598.17	19.08
598.5	19.15
598.83	19.25
599.16	19.38
599.489	19.38
599.819	19.5
600.149	19.59
600.479	19.73
600.808	19.8
601.138	19.98
601.467	20.08
601.797	20.33
602.126	20.49
602.456	20.61
602.785	20.68
603.114	20.69
603.443	20.88
603.773	21.11
604.102	21.19
604.431	21.3
604.76	21.5
605.089	21.62
605.418	21.74
605.747	21.86
606.076	22.03
606.405	22.21
606.733	22.47
607.062	22.72
607.391	22.77
607.72	22.96
608.048	23.16
608.377	23.35
608.705	23.57
609.034	23.71
609.362	23.87
609.69	24.16
610.019	24.14
610.347	24.28
610.675	24.36
611.004	24.42
611.332	24.71
611.66	24.9
611.988	24.98
612.316	25.25
612.644	25.18
612.972	25.32
613.3	25.41
613.627	25.51
613.955	25.69
614.283	25.95
614.611	26.23
614.938	26.52
615.266	26.57
615.593	26.69
615.921	27.03
616.248	27.22
616.576	27.55
616.903	27.71
617.23	28.2
617.558	28.41
617.885	28.86
618.212	29.33
618.539	29.59
618.866	29.66
619.193	30.13
619.52	30.34
619.847	30.39
620.174	30.59
620.501	30.74
620.828	31.22
621.155	31.52
621.481	31.88
621.808	32.2
622.135	32.64
622.461	32.83
622.788	32.86
623.114	33.19
623.441	33.37
623.767	33.81
624.093	33.79
624.42	33.98
624.746	34.03
625.072	34.05
625.398	34.18
625.725	34.37
626.051	34.53
626.377	34.83
626.703	35.07
627.029	35.45
627.354	35.51
627.68	35.53
628.006	35.8
628.332	36
628.658	35.86
628.983	35.8
629.309	36.21
629.634	36.14
629.96	36.43
630.285	36.32
630.611	36.1
630.936	36.4
631.262	36.05
631.587	36.1
631.912	36.2
632.237	36.56
632.562	36.92
632.887	37.05
633.213	37.52
633.538	37.79
633.863	37.88
634.187	37.79
634.512	37.65
634.837	38.05
635.162	38.22
635.487	38.5
635.811	38.73
636.136	39.04
636.461	39.22
636.785	39.81
637.11	40.52
637.434	40.59
637.758	41.18
638.083	41.64
638.407	41.63
638.731	42.14
639.056	42.02
639.38	42.06
639.704	42.16
640.028	42.73
640.352	42.95
640.676	43.08
641	43.19
641.324	43.52
641.648	43.85
641.972	44.45
642.295	44.7
642.619	45.27
642.943	44.74
643.266	44.2
643.59	43.75
643.913	44.39
644.237	44.65
644.56	44.5
644.884	44.11
645.207	44.26
645.53	44.14
645.854	44.09
646.177	43.9
646.5	44.07
646.823	43.95
647.146	44.13
647.469	44.06
647.792	44.37
648.115	43.91
648.438	44.01
648.761	44.96
649.084	46.16
649.406	46.66
649.729	46.36
650.052	45.97
650.374	45.88
650.697	45.78
651.019	45.94
651.342	46.08
651.664	46.39
651.987	46.25
652.309	46.29
652.631	46.43
652.953	46.58
653.276	46.41
653.598	46.45
653.92	46.41
654.242	46.42
654.564	46.37
654.886	46.52
655.208	46.56
655.53	46.93
655.851	46.8
656.173	46.95
656.495	46.82
656.816	46.39
657.138	45.75
657.46	44.98
657.781	44.8
658.103	45.44
658.424	45.92
658.746	45.86
659.067	45.54
659.388	45.31
659.709	45.11
660.031	44.56
660.352	44.04
660.673	44
660.994	43.97
661.315	44.51
661.636	44.79
661.957	45.67
662.278	45.74
662.599	46.47
662.919	46.42
663.24	46.31
663.561	44.58
663.881	44.84
664.202	44.77
664.523	45.37
664.843	45.77
665.164	46.03
