Data from T2__Reflection__23__00-11-11-835.txt Node

Date: Sat Jun 05 00:11:11 CEST 2021
User: mabdelazizm
Spectrometer: FLMS18565
Trigger mode: 0
Integration Time (sec): 2.000000E0
Scans to average: 1
Electric dark correction enabled: true
Nonlinearity correction enabled: false
Boxcar width: 12
XAxis mode: Wavelengths
Number of Pixels in Spectrum: 2048
>>>>>Begin Spectral Data<<<<<
179.071	25.54
179.452	4.34
179.833	46.62
180.214	51.9
180.595	9.26
180.977	-350
181.358	-193.36
181.739	-4.29
182.12	17.84
182.501	27.62
182.882	43.88
183.262	139.47
183.643	-126.71
184.024	64.8
184.405	77.79
184.786	69.54
185.166	58.08
185.547	45.12
185.927	37.51
186.308	25.76
186.689	32.39
187.069	36.73
187.449	36.43
187.83	32.57
188.21	12.4
188.59	12.7
188.971	13.13
189.351	13.47
189.731	14.03
190.111	10.45
190.491	5.67
190.871	2.3
191.251	11.18
191.631	17.28
192.011	9.89
192.391	11.23
192.771	18.75
193.151	17.8
193.531	8.61
193.91	7.09
194.29	6.78
194.67	9.07
195.049	7.31
195.429	7.54
195.808	5.2
196.188	3.26
196.567	2.21
196.946	4.1
197.326	3.45
197.705	9.24
198.084	11.54
198.464	12.87
198.843	13.39
199.222	13.34
199.601	14.85
199.98	15
200.359	14.48
200.738	13.63
201.117	7.42
201.496	7.92
201.875	6.6
202.254	4.58
202.632	2.89
203.011	5.53
203.39	5.97
203.768	6.27
204.147	7.42
204.525	7.28
204.904	8.76
205.282	11.67
205.661	11.98
206.039	12.19
206.418	9.16
206.796	10.99
207.174	7.99
207.552	6.77
207.931	4.4
208.309	5.15
208.687	3.16
209.065	0.91
209.443	-0.01
209.821	-0.35
210.199	-0.01
210.577	4.72
210.954	7.62
211.332	8.47
211.71	8.2
212.088	7.91
212.465	6.68
212.843	6.58
213.221	8.15
213.598	3.98
213.976	3.39
214.353	1.28
214.731	3.03
215.108	3.1
215.485	1.71
215.863	0.5
216.24	-0.19
216.617	2.4
216.994	3.2
217.371	3.26
217.749	3.47
218.126	4.75
218.503	5.12
218.88	4.84
219.256	6
219.633	5.79
220.01	3.65
220.387	4.65
220.764	4.26
221.14	3.44
221.517	3.93
221.894	3.8
222.27	3.78
222.647	3.12
223.023	3.75
223.4	4.31
223.776	4.16
224.153	2.81
224.529	2.84
224.905	3.83
225.282	3.91
225.658	3.67
226.034	3.14
226.41	3.1
226.786	3.26
227.162	3.06
227.538	2.92
227.914	2.46
228.29	2.75
228.666	1.93
229.042	1.99
229.418	2.13
229.793	2.36
230.169	2.33
230.545	2.62
230.92	2.66
231.296	2.48
231.672	2.43
232.047	2.09
232.422	1.95
232.798	1.96
233.173	1.91
233.549	2.18
233.924	2.12
234.299	1.83
234.674	1.93
235.05	2.03
235.425	1.95
235.8	1.9
236.175	1.88
236.55	1.88
236.925	2.01
237.3	2.15
237.675	2.25
238.049	2.44
238.424	2.4
238.799	2.46
239.174	2.38
239.548	2.36
239.923	2.25
240.297	2.19
240.672	2.33
241.046	2.3
241.421	2.42
241.795	2.46
242.17	2.44
242.544	2.46
242.918	2.32
243.293	2.25
243.667	2.26
244.041	2.27
244.415	2.33
244.789	2.27
245.163	2.25
245.537	2.25
245.911	2.22
246.285	2.09
246.659	2.03
247.033	1.99
247.406	1.92
247.78	1.91
248.154	1.91
248.528	1.84
248.901	1.89
249.275	1.9
249.648	1.91
250.022	1.82
250.395	1.81
250.769	1.78
251.142	1.85
251.515	1.81
251.888	1.81
252.262	1.84
252.635	1.84
253.008	1.83
253.381	1.82
253.754	1.74
254.127	1.8
254.5	1.79
254.873	1.76
255.246	1.8
255.619	1.86
255.992	1.89
256.364	1.91
256.737	1.91
257.11	1.95
257.483	1.91
257.855	1.91
258.228	1.87
258.6	1.89
258.973	1.91
259.345	1.97
259.718	1.95
260.09	1.95
260.462	1.91
260.834	1.97
261.207	1.94
261.579	1.89
261.951	1.89
262.323	1.9
262.695	1.93
263.067	1.94
263.439	1.93
263.811	1.93
264.183	1.99
264.555	1.96
264.927	1.89
265.298	1.89
265.67	1.79
266.042	1.84
266.413	1.76
266.785	1.74
267.156	1.72
267.528	1.78
267.899	1.72
268.271	1.69
268.642	1.64
269.013	1.61
269.385	1.55
269.756	1.46
270.127	1.44
270.498	1.47
270.87	1.53
271.241	1.53
271.612	1.53
271.983	1.51
272.354	1.55
272.724	1.54
273.095	1.57
273.466	1.51
273.837	1.49
274.208	1.55
274.578	1.57
274.949	1.61
275.32	1.56
275.69	1.63
276.061	1.7
276.431	1.73
276.802	1.69
277.172	1.69
277.542	1.71
277.913	1.73
278.283	1.8
278.653	1.88
279.023	1.96
279.394	1.96
279.764	1.94
280.134	1.87
280.504	1.92
280.874	1.91
281.244	1.88
281.614	1.79
281.983	1.77
282.353	1.74
282.723	1.75
283.093	1.76
283.462	1.74
283.832	1.66
284.202	1.67
284.571	1.65
284.941	1.6
285.31	1.54
285.68	1.51
286.049	1.44
286.418	1.49
286.788	1.48
287.157	1.46
287.526	1.42
287.895	1.37
288.264	1.32
288.633	1.35
289.002	1.36
289.371	1.35
289.74	1.29
290.109	1.35
290.478	1.34
290.847	1.35
291.216	1.37
291.585	1.34
291.953	1.29
292.322	1.35
292.691	1.33
293.059	1.31
293.428	1.29
293.796	1.33
294.165	1.34
294.533	1.36
294.901	1.34
295.27	1.36
295.638	1.31
296.006	1.3
296.374	1.25
296.743	1.22
297.111	1.18
297.479	1.2
297.847	1.12
298.215	1.12
298.583	1.11
298.95	1.13
299.318	1.12
299.686	1.14
300.054	1.13
300.422	1.12
300.789	1.12
301.157	1.11
301.525	1.05
301.892	1.06
302.26	1.11
302.627	1.08
302.994	1.05
303.362	1.04
303.729	1.03
304.097	1.02
304.464	1.04
304.831	1.05
305.198	1.04
305.565	1.11
305.932	1.09
306.299	1.12
306.666	1.15
307.033	1.15
307.4	1.12
307.767	1.13
308.134	1.09
308.501	1.03
308.867	1.06
309.234	1.08
309.601	1.11
309.967	1.09
310.334	1.13
310.701	1.11
311.067	1.1
311.433	1.09
311.8	1.09
312.166	1.05
312.533	1.07
312.899	1.06
313.265	1.09
313.631	1.06
313.997	1.08
314.363	1.06
314.729	0.98
315.096	1
315.461	1.01
315.827	0.97
316.193	0.97
316.559	0.98
316.925	1.02
317.291	1.08
317.656	1.07
318.022	1.01
318.388	0.99
318.753	0.94
319.119	0.98
319.484	0.97
319.85	0.98
320.215	0.98
320.581	0.97
320.946	1.01
321.311	1.06
321.676	0.97
322.042	0.96
322.407	0.96
322.772	0.99
323.137	0.95
323.502	0.97
323.867	1.02
324.232	0.93
324.597	0.92
324.962	0.96
325.327	0.97
325.691	1.03
326.056	1.03
326.421	1
326.785	1.02
327.15	1.04
327.514	1.04
327.879	1.06
328.243	1.01
328.608	1.07
328.972	1.05
329.337	1.03
329.701	1.09
330.065	0.99
330.429	0.93
330.794	0.99
331.158	1.02
331.522	0.96
331.886	0.97
332.25	0.94
332.614	0.91
332.978	0.81
333.342	0.88
333.705	0.84
334.069	0.79
334.433	0.79
334.797	0.78
335.16	0.76
335.524	0.75
335.887	0.74
336.251	0.76
336.614	0.74
336.978	0.75
337.341	0.76
337.705	0.64
338.068	0.74
338.431	0.81
338.794	0.74
339.158	0.86
339.521	0.83
339.884	0.83
340.247	0.79
340.61	0.78
340.973	0.76
341.336	0.73
341.699	0.73
342.062	0.8
342.424	0.83
342.787	0.8
343.15	0.78
343.512	0.76
343.875	0.7
344.238	0.71
344.6	0.72
344.963	0.7
345.325	0.65
345.688	0.7
346.05	0.65
346.412	0.66
346.775	0.73
347.137	0.68
347.499	0.64
347.861	0.71
348.223	0.63
348.585	0.72
348.947	0.71
349.309	0.72
349.671	0.76
350.033	0.83
350.395	0.85
350.757	0.91
351.118	0.91
351.48	0.88
351.842	0.93
352.203	0.93
352.565	0.91
352.927	0.98
353.288	0.95
353.65	0.92
354.011	0.96
354.372	1.01
354.734	1.03
355.095	1.08
355.456	1.01
355.817	0.97
356.179	0.94
356.54	0.89
356.901	0.83
357.262	0.83
357.623	0.75
357.984	0.75
358.345	0.77
358.705	0.76
359.066	0.71
359.427	0.78
359.788	0.73
360.148	0.78
360.509	0.84
360.87	0.88
361.23	0.97
361.591	1.01
361.951	1.02
362.312	1.04
362.672	1.1
363.032	1.1
363.393	1.08
363.753	1.07
364.113	1.03
364.473	1.08
364.833	1.1
365.193	1.1
365.553	1.13
365.913	1.11
366.273	1.14
366.633	1.21
366.993	1.25
367.353	1.24
367.713	1.25
368.072	1.23
368.432	1.2
368.792	1.21
369.151	1.18
369.511	1.17
369.87	1.11
370.23	1.05
370.589	1.02
370.949	0.98
371.308	0.94
371.667	0.9
372.027	0.88
372.386	0.87
372.745	0.82
373.104	0.91
373.463	0.92
373.822	0.92
374.181	0.91
374.54	0.91
374.899	0.94
375.258	0.95
375.617	0.91
375.975	0.84
376.334	0.83
376.693	0.85
377.052	0.87
377.41	0.86
377.769	0.85
378.127	0.82
378.486	0.82
378.844	0.88
379.202	0.86
379.561	0.84
379.919	0.84
380.277	0.84
380.636	0.81
380.994	0.8
381.352	0.76
381.71	0.74
382.068	0.66
382.426	0.65
382.784	0.66
383.142	0.68
383.5	0.69
383.857	0.63
384.215	0.56
384.573	0.56
384.931	0.59
385.288	0.54
385.646	0.46
386.003	0.48
386.361	0.48
386.718	0.49
387.076	0.56
387.433	0.57
387.791	0.53
388.148	0.57
388.505	0.58
388.862	0.56
389.22	0.62
389.577	0.63
389.934	0.61
390.291	0.63
390.648	0.66
391.005	0.61
391.362	0.68
391.718	0.74
392.075	0.74
392.432	0.72
392.789	0.79
393.145	0.83
393.502	0.89
393.859	0.9
394.215	0.92
394.572	0.97
394.928	0.9
395.285	0.88
395.641	0.91
395.997	0.88
396.354	0.8
396.71	0.85
397.066	0.81
397.422	0.84
397.778	0.85
398.134	0.82
398.491	0.82
398.846	0.85
399.202	0.85
399.558	0.89
399.914	0.92
400.27	0.88
400.626	0.83
400.981	0.78
401.337	0.84
401.693	0.78
402.048	0.82
402.404	0.78
402.759	0.82
403.115	0.91
403.47	0.97
403.826	1.07
404.181	1.1
404.536	1.09
404.892	1.08
405.247	1.11
405.602	1.05
405.957	1.09
406.312	1.08
406.667	1.19
407.022	1.16
407.377	1.19
407.732	1.21
408.087	1.25
408.442	1.27
408.796	1.28
409.151	1.33
409.506	1.36
409.86	1.46
410.215	1.48
410.57	1.56
410.924	1.53
411.279	1.58
411.633	1.63
411.987	1.57
412.342	1.53
412.696	1.44
413.05	1.48
413.404	1.5
413.758	1.65
414.113	1.67
414.467	1.73
414.821	1.8
415.175	1.9
415.529	1.82
415.882	1.86
416.236	1.89
416.59	1.95
416.944	2.02
417.298	2
417.651	2.04
418.005	2.05
418.358	2.1
418.712	2.1
419.065	2.08
419.419	2.14
419.772	2.18
420.126	2.15
420.479	2.13
420.832	2.16
421.185	2.25
421.539	2.31
421.892	2.35
422.245	2.36
422.598	2.3
422.951	2.38
423.304	2.38
423.657	2.49
424.01	2.52
424.363	2.61
424.715	2.73
425.068	2.82
425.421	2.86
425.773	2.86
426.126	2.96
426.479	3.06
426.831	3.09
427.184	3.08
427.536	3.16
427.889	3.26
428.241	3.28
428.593	3.3
428.945	3.35
429.298	3.36
429.65	3.43
430.002	3.41
430.354	3.42
430.706	3.4
431.058	3.41
431.41	3.37
431.762	3.37
432.114	3.38
432.466	3.28
432.817	3.3
433.169	3.3
433.521	3.31
433.872	3.23
434.224	3.22
434.576	3.17
434.927	3.08
435.279	3.02
435.63	3
435.981	3.01
436.333	2.96
436.684	2.88
437.035	2.8
437.387	2.83
437.738	2.82
438.089	2.79
438.44	2.73
438.791	2.71
439.142	2.74
439.493	2.71
439.844	2.73
440.195	2.76
440.545	2.77
440.896	2.82
441.247	2.81
441.598	2.69
441.948	2.66
442.299	2.62
442.649	2.64
443	2.57
443.35	2.6
443.701	2.56
444.051	2.56
444.401	2.51
444.752	2.49
445.102	2.48
445.452	2.54
445.802	2.53
446.152	2.53
446.502	2.63
446.852	2.67
447.202	2.65
447.552	2.65
447.902	2.68
448.252	2.73
448.602	2.13
448.952	2.07
449.301	2.04
449.651	2.05
450.001	2.1
450.35	2.11
450.7	2.12
451.049	2.09
451.399	2.11
451.748	2.2
452.097	2.17
452.447	2.24
452.796	2.26
453.145	2.37
453.494	2.44
453.843	2.44
454.193	2.4
454.542	2.58
454.891	2.66
455.239	2.61
455.588	2.62
455.937	2.8
456.286	2.93
456.635	2.9
456.984	3.01
457.332	3.72
457.681	3.89
458.03	4.04
458.378	4.05
458.727	4.13
459.075	4.28
459.423	4.42
459.772	4.48
460.12	4.54
460.468	4.61
460.817	4.79
461.165	4.93
461.513	4.98
461.861	5.13
462.209	5.1
462.557	5.21
462.905	5.28
463.253	5.23
463.601	5.27
463.949	5.32
464.297	5.38
464.644	5.28
464.992	5.2
465.34	5.24
465.687	5.17
466.035	5.19
466.383	5.01
466.73	4.83
467.078	4.77
467.425	4.68
467.772	4.58
468.12	4.4
468.467	4.36
468.814	4.33
469.161	4.2
469.508	4.02
469.856	3.83
470.203	3.81
470.55	3.66
470.897	3.62
471.243	3.55
471.59	3.47
471.937	3.38
472.284	3.28
472.631	3.18
472.977	3.12
473.324	3.12
473.671	3.04
474.017	3
474.364	2.95
474.71	2.89
475.057	2.92
475.403	2.95
475.749	2.91
476.096	2.89
476.442	2.93
476.788	3
477.134	3.04
477.48	2.99
477.826	2.98
478.172	3.02
478.518	3.05
478.864	3.11
479.21	3.13
479.556	3.17
479.902	3.23
480.248	3.29
480.593	3.37
480.939	3.43
481.285	3.58
481.63	3.6
481.976	3.56
482.321	3.62
482.667	3.69
483.012	3.86
483.357	3.98
483.703	4.1
484.048	4.24
484.393	4.43
484.738	4.63
485.084	4.75
485.429	4.92
485.774	5.09
486.119	5.26
486.464	5.56
486.808	5.8
487.153	6.08
487.498	6.26
487.843	6.46
488.188	6.76
488.532	7.03
488.877	7.42
489.222	7.78
489.566	8.15
489.911	8.49
490.255	8.89
490.6	9.38
490.944	9.82
491.288	10.28
491.633	10.6
491.977	10.93
492.321	11.35
492.665	11.81
493.009	12.21
493.353	12.57
493.697	12.95
494.041	13.34
494.385	13.73
494.729	14.16
495.073	14.49
495.417	14.86
495.76	15.24
496.104	15.61
496.448	16.03
496.791	16.33
497.135	16.63
497.479	16.92
497.822	17.15
498.165	17.42
498.509	17.71
498.852	17.96
499.196	18.28
499.539	18.55
499.882	18.72
500.225	19.01
500.568	19.32
500.911	19.5
501.254	19.67
501.597	19.9
501.94	20.02
502.283	20.15
502.626	20.32
502.969	20.34
503.312	20.42
503.654	20.53
503.997	20.64
504.34	20.78
504.682	20.88
505.025	20.95
505.367	21.12
505.71	21.25
506.052	21.3
506.395	21.39
506.737	21.46
507.079	21.46
507.421	21.53
507.764	21.59
508.106	21.64
508.448	21.78
508.79	21.79
509.132	21.76
509.474	21.79
509.816	21.77
510.158	21.7
510.499	21.75
510.841	21.82
511.183	21.8
511.525	21.85
511.866	21.82
512.208	21.76
512.549	21.65
512.891	21.52
513.232	21.47
513.574	21.41
513.915	21.38
514.256	21.26
514.598	21.21
514.939	21.22
515.28	21.12
515.621	21.13
515.962	21.1
516.303	21.01
516.644	20.9
516.985	20.77
517.326	20.66
517.667	20.63
518.008	20.54
518.349	20.51
518.69	20.49
519.03	20.42
519.371	20.36
519.712	20.23
520.052	20.22
520.393	20.27
520.733	20.24
521.074	20.29
521.414	20.32
521.754	20.29
522.095	20.31
522.435	20.25
522.775	20.21
523.115	20.04
523.455	19.96
523.795	20.03
524.135	19.92
524.475	19.91
524.815	19.91
525.155	19.88
525.495	19.81
525.835	19.78
526.175	19.75
526.514	19.76
526.854	19.69
527.194	19.65
527.533	19.58
527.873	19.52
528.212	19.51
528.552	19.45
528.891	19.32
529.23	19.28
529.57	19.2
529.909	19.17
530.248	19.12
530.587	19.05
530.927	18.97
531.266	18.99
531.605	19.12
531.944	19.16
532.283	18.99
532.621	18.87
532.96	18.85
533.299	18.71
533.638	18.63
533.977	18.6
534.315	18.63
534.654	18.49
534.992	18.48
535.331	18.39
535.67	18.35
536.008	18.28
536.346	18.22
536.685	18.28
537.023	18.24
537.361	18.24
537.7	18.28
538.038	18.17
538.376	18.13
538.714	18.08
539.052	18
539.39	17.96
539.728	17.96
540.066	17.8
540.404	17.69
540.741	17.68
541.079	17.67
541.417	17.54
541.755	17.59
542.092	17.55
542.43	17.51
542.767	17.41
543.105	17.42
543.442	17.31
543.78	17.35
544.117	17.3
544.454	17.39
544.792	17.39
545.129	17.33
545.466	17.34
545.803	17.33
546.14	17.29
546.477	17.33
546.814	17.27
547.151	17.18
547.488	17.28
547.825	17.22
548.162	17.1
548.499	17.18
548.835	17.2
549.172	17.22
549.509	17.36
549.845	17.37
550.182	17.37
550.518	17.4
550.855	17.48
551.191	17.48
551.528	17.49
551.864	17.51
552.2	17.61
552.537	17.67
552.873	17.6
553.209	17.55
553.545	17.56
553.881	17.66
554.217	17.69
554.553	17.76
554.889	17.88
555.225	17.94
555.561	18.14
555.896	18.1
556.232	18.15
556.568	18.13
556.903	18.19
557.239	18.21
557.575	18.17
557.91	18.15
558.245	18.32
558.581	18.29
558.916	18.35
559.252	18.29
559.587	18.34
559.922	18.46
560.257	18.65
560.592	18.48
560.928	18.47
561.263	18.53
561.598	18.68
561.933	18.78
562.267	18.82
562.602	18.99
562.937	19.03
563.272	18.95
563.607	19
563.941	19.13
564.276	19.29
564.611	19.56
564.945	19.77
565.28	19.99
565.614	20.1
565.949	20.29
566.283	20.42
566.617	20.38
566.951	20.45
567.286	20.56
567.62	20.69
567.954	20.85
568.288	20.78
568.622	20.73
568.956	20.89
569.29	21.07
569.624	21.06
569.958	21.12
570.292	21.11
570.626	21.1
570.959	21.15
571.293	21.26
571.627	21.41
571.96	21.44
572.294	21.4
572.627	21.38
572.961	21.39
573.294	21.45
573.627	21.47
573.961	21.57
574.294	21.65
574.627	21.69
574.961	21.77
575.294	21.87
575.627	21.95
575.96	22.1
576.293	22.13
576.626	22.21
576.959	22.27
577.292	22.3
577.624	22.29
577.957	22.42
578.29	22.49
578.623	22.59
578.955	22.69
579.288	22.85
579.62	22.91
579.953	22.99
580.285	23.13
580.618	23.31
580.95	23.41
581.282	23.43
581.615	23.5
581.947	23.56
582.279	23.63
582.611	23.7
582.943	23.83
583.275	23.97
583.607	24.14
583.939	24.2
584.271	24.23
584.603	24.31
584.935	24.4
585.267	24.51
585.598	24.66
585.93	24.75
586.262	24.88
586.593	24.93
586.925	24.98
587.256	25.12
587.588	25.02
587.919	25.07
588.25	25.14
588.582	25.23
588.913	25.23
589.244	25.38
589.575	25.56
589.907	25.65
590.238	25.74
590.569	25.83
590.9	25.93
591.231	26.03
591.562	26.03
591.892	26.1
592.223	26.3
592.554	26.44
592.885	26.59
593.215	26.71
593.546	26.82
593.877	26.91
594.207	27.02
594.538	27.16
594.868	27.43
595.198	27.6
595.529	27.7
595.859	27.94
596.189	28.14
596.52	28.27
596.85	28.42
597.18	28.63
597.51	28.72
597.84	28.86
598.17	28.98
598.5	29.01
598.83	29.16
599.16	29.39
599.489	29.48
599.819	29.76
600.149	29.87
600.479	29.94
600.808	30.03
601.138	30.12
601.467	30.36
601.797	30.61
602.126	30.83
602.456	31.02
602.785	31.14
603.114	31.2
603.443	31.38
603.773	31.65
604.102	31.72
604.431	31.94
604.76	32.11
605.089	32.2
605.418	32.29
605.747	32.43
606.076	32.59
606.405	32.73
606.733	33.03
607.062	33.23
607.391	33.43
607.72	33.62
608.048	33.8
608.377	34.04
608.705	34.34
609.034	34.67
609.362	35.09
609.69	35.49
610.019	35.74
610.347	36.05
610.675	36.22
611.004	36.45
611.332	36.65
611.66	36.98
611.988	37.04
612.316	37.37
612.644	37.39
612.972	37.53
613.3	37.75
613.627	38.03
613.955	38.44
614.283	38.67
614.611	39.03
614.938	39.13
615.266	39.26
615.593	39.46
615.921	39.83
616.248	40.2
616.576	40.62
616.903	41.11
617.23	41.64
617.558	41.96
617.885	42.28
618.212	42.62
618.539	42.83
618.866	43.17
619.193	43.38
619.52	43.74
619.847	43.9
620.174	44.22
620.501	44.61
620.828	45.12
621.155	45.45
621.481	45.78
621.808	46.16
622.135	46.27
622.461	46.69
622.788	46.8
623.114	47.28
623.441	47.64
623.767	48.22
624.093	48.7
624.42	49.08
624.746	49.54
625.072	49.66
625.398	49.81
625.725	50.13
626.051	50.59
626.377	50.91
626.703	51.17
627.029	51.55
627.354	51.86
627.68	52.05
628.006	52.38
628.332	52.75
628.658	52.68
628.983	52.73
629.309	53.33
629.634	53.85
629.96	54.22
630.285	54.33
630.611	54.4
630.936	54.75
631.262	54.9
631.587	55.15
631.912	55.12
632.237	55.12
632.562	55.28
632.887	55.63
633.213	55.87
633.538	56.28
633.863	56.56
634.187	56.53
634.512	56.68
634.837	57.06
635.162	57.49
635.487	58.03
635.811	58.47
636.136	58.73
636.461	58.85
636.785	59.04
637.11	59.57
637.434	59.48
637.758	59.64
638.083	60.17
638.407	60.67
638.731	60.65
639.056	61.31
639.38	61.67
639.704	62.46
640.028	62.53
640.352	62.69
640.676	62.85
641	62.78
641.324	63.37
641.648	63.3
641.972	63.63
642.295	64.32
642.619	64.54
642.943	64.44
643.266	64.11
643.59	63.62
643.913	63.92
644.237	63.87
644.56	64.21
644.884	64.46
645.207	64.46
645.53	64.61
645.854	64.54
646.177	64.04
646.5	64.28
646.823	65.18
647.146	64.95
647.469	64.98
647.792	64.62
648.115	64.56
648.438	64.77
648.761	66.02
649.084	67
649.406	67.38
649.729	67.47
650.052	67.44
650.374	67.28
650.697	67.38
651.019	67.6
651.342	67.68
651.664	68.02
651.987	68.04
652.309	68.24
652.631	68.27
652.953	68.34
653.276	68.41
653.598	68.58
653.92	68.71
654.242	68.95
654.564	69
654.886	68.81
655.208	68.94
655.53	69.03
655.851	69.09
656.173	69.31
656.495	69.49
656.816	69.21
657.138	68.94
657.46	69.33
657.781	70.39
658.103	71.65
658.424	72.61
658.746	72.72
659.067	72.68
659.388	73.17
659.709	72.67
660.031	72.83
660.352	72.91
660.673	73.16
660.994	73.32
661.315	74.09
661.636	73.64
661.957	74.42
662.278	74.34
662.599	74.88
662.919	74.95
663.24	75.38
663.561	74.55
663.881	74.57
664.202	73.79
