Data from T2__Reflection__40__00-28-11-801.txt Node

Date: Sat Jun 05 00:28:11 CEST 2021
User: mabdelazizm
Spectrometer: FLMS18565
Trigger mode: 0
Integration Time (sec): 2.000000E0
Scans to average: 1
Electric dark correction enabled: true
Nonlinearity correction enabled: false
Boxcar width: 12
XAxis mode: Wavelengths
Number of Pixels in Spectrum: 2048
>>>>>Begin Spectral Data<<<<<
179.071	67.37
179.452	36.27
179.833	74.69
180.214	111.39
180.595	163.89
180.977	842.65
181.358	141.37
181.739	235
182.12	126.59
182.501	121.5
182.882	153.78
183.262	196.05
183.643	-278.42
184.024	-22.83
184.405	38.18
184.786	33.41
185.166	59.43
185.547	54.79
185.927	52.28
186.308	35
186.689	42.21
187.069	53.62
187.449	43.83
187.83	38.56
188.21	21.83
188.59	29.67
188.971	24.53
189.351	25.06
189.731	29.76
190.111	18.46
190.491	22.48
190.871	15.41
191.251	22.42
191.631	24
192.011	18.43
192.391	16.55
192.771	16.52
193.151	15.28
193.531	11.02
193.91	6.12
194.29	8.92
194.67	7.23
195.049	4.68
195.429	5.45
195.808	6.06
196.188	3.56
196.567	-0.25
196.946	1.33
197.326	-0.94
197.705	0.02
198.084	-2.2
198.464	-3.08
198.843	-2.13
199.222	-4.25
199.601	-1.85
199.98	-3.06
200.359	-2.26
200.738	-0.05
201.117	-3.43
201.496	-2.39
201.875	-2.19
202.254	-3.98
202.632	-4.3
203.011	0.38
203.39	0.58
203.768	1.08
204.147	2.59
204.525	2.36
204.904	0.31
205.282	0.77
205.661	1.02
206.039	2.25
206.418	0.54
206.796	2.66
207.174	0.37
207.552	0.95
207.931	0.36
208.309	0.01
208.687	1.14
209.065	3.17
209.443	3.12
209.821	3.7
210.199	-0.87
210.577	0.86
210.954	3.46
211.332	1.88
211.71	5.06
212.088	5.59
212.465	2.36
212.843	4.56
213.221	6.02
213.598	3.78
213.976	2.29
214.353	2.78
214.731	2.62
215.108	2.79
215.485	1.17
215.863	0.19
216.24	0.33
216.617	2.94
216.994	3.59
217.371	3.23
217.749	4.17
218.126	5.14
218.503	4.31
218.88	3.41
219.256	4.44
219.633	6.56
220.01	6.05
220.387	5.64
220.764	6.26
221.14	4.56
221.517	4.56
221.894	3.89
222.27	2.96
222.647	1.47
223.023	1.7
223.4	2.42
223.776	2.11
224.153	1.74
224.529	1.84
224.905	2.18
225.282	2.29
225.658	1.84
226.034	1.83
226.41	2
226.786	2.25
227.162	1.77
227.538	1.48
227.914	1.62
228.29	1.84
228.666	1.06
229.042	0.88
229.418	1.22
229.793	1.21
230.169	1.27
230.545	1.46
230.92	1.31
231.296	1.35
231.672	1.53
232.047	1.62
232.422	1.49
232.798	1.47
233.173	1.41
233.549	1.57
233.924	1.51
234.299	1.4
234.674	1.42
235.05	1.6
235.425	1.53
235.8	1.36
236.175	1.28
236.55	1.37
236.925	1.34
237.3	1.35
237.675	1.5
238.049	1.69
238.424	1.78
238.799	1.74
239.174	1.82
239.548	1.78
239.923	1.73
240.297	1.75
240.672	1.84
241.046	1.77
241.421	1.72
241.795	1.75
242.17	1.71
242.544	1.69
242.918	1.56
243.293	1.52
243.667	1.51
244.041	1.51
244.415	1.51
244.789	1.46
245.163	1.47
245.537	1.53
245.911	1.5
246.285	1.4
246.659	1.4
247.033	1.42
247.406	1.29
247.78	1.22
248.154	1.18
248.528	1.12
248.901	1.24
249.275	1.27
249.648	1.25
250.022	1.2
250.395	1.2
250.769	1.18
251.142	1.24
251.515	1.27
251.888	1.32
252.262	1.41
252.635	1.45
253.008	1.39
253.381	1.38
253.754	1.36
254.127	1.39
254.5	1.41
254.873	1.38
255.246	1.42
255.619	1.46
255.992	1.49
256.364	1.44
256.737	1.51
257.11	1.5
257.483	1.53
257.855	1.51
258.228	1.45
258.6	1.44
258.973	1.51
259.345	1.56
259.718	1.56
260.09	1.61
260.462	1.52
260.834	1.54
261.207	1.53
261.579	1.47
261.951	1.44
262.323	1.51
262.695	1.57
263.067	1.62
263.439	1.63
263.811	1.65
264.183	1.67
264.555	1.65
264.927	1.68
265.298	1.66
265.67	1.61
266.042	1.68
266.413	1.67
266.785	1.64
267.156	1.63
267.528	1.63
267.899	1.62
268.271	1.56
268.642	1.54
269.013	1.51
269.385	1.48
269.756	1.47
270.127	1.48
270.498	1.47
270.87	1.49
271.241	1.48
271.612	1.44
271.983	1.43
272.354	1.43
272.724	1.44
273.095	1.4
273.466	1.4
273.837	1.38
274.208	1.4
274.578	1.39
274.949	1.4
275.32	1.3
275.69	1.36
276.061	1.36
276.431	1.4
276.802	1.43
277.172	1.4
277.542	1.42
277.913	1.41
278.283	1.43
278.653	1.43
279.023	1.48
279.394	1.51
279.764	1.51
280.134	1.5
280.504	1.57
280.874	1.6
281.244	1.58
281.614	1.53
281.983	1.51
282.353	1.51
282.723	1.53
283.093	1.53
283.462	1.52
283.832	1.49
284.202	1.51
284.571	1.51
284.941	1.46
285.31	1.44
285.68	1.41
286.049	1.34
286.418	1.38
286.788	1.42
287.157	1.39
287.526	1.38
287.895	1.38
288.264	1.36
288.633	1.33
289.002	1.27
289.371	1.3
289.74	1.24
290.109	1.22
290.478	1.2
290.847	1.21
291.216	1.2
291.585	1.19
291.953	1.14
292.322	1.16
292.691	1.16
293.059	1.17
293.428	1.15
293.796	1.14
294.165	1.16
294.533	1.18
294.901	1.17
295.27	1.17
295.638	1.11
296.006	1.01
296.374	1.02
296.743	1.01
297.111	0.97
297.479	1
297.847	0.94
298.215	0.99
298.583	0.97
298.95	0.98
299.318	1
299.686	1.04
300.054	0.99
300.422	0.98
300.789	0.97
301.157	0.93
301.525	0.91
301.892	0.86
302.26	0.9
302.627	0.89
302.994	0.92
303.362	0.9
303.729	0.93
304.097	0.93
304.464	0.99
304.831	0.98
305.198	0.97
305.565	0.99
305.932	0.97
306.299	0.97
306.666	1
307.033	0.99
307.4	0.98
307.767	0.98
308.134	0.91
308.501	0.89
308.867	0.88
309.234	0.92
309.601	0.93
309.967	0.88
310.334	0.92
310.701	0.94
311.067	0.92
311.433	0.9
311.8	0.89
312.166	0.88
312.533	0.92
312.899	0.85
313.265	0.83
313.631	0.8
313.997	0.81
314.363	0.84
314.729	0.79
315.096	0.78
315.461	0.82
315.827	0.77
316.193	0.83
316.559	0.84
316.925	0.87
317.291	0.94
317.656	0.92
318.022	0.89
318.388	0.84
318.753	0.78
319.119	0.8
319.484	0.78
319.85	0.76
320.215	0.77
320.581	0.78
320.946	0.79
321.311	0.83
321.676	0.75
322.042	0.76
322.407	0.79
322.772	0.82
323.137	0.84
323.502	0.82
323.867	0.87
324.232	0.86
324.597	0.87
324.962	0.91
325.327	0.87
325.691	0.88
326.056	0.88
326.421	0.88
326.785	0.91
327.15	0.93
327.514	0.97
327.879	0.99
328.243	1.02
328.608	1.06
328.972	1.01
329.337	1.04
329.701	1.06
330.065	1.01
330.429	0.93
330.794	0.93
331.158	0.94
331.522	0.84
331.886	0.8
332.25	0.74
332.614	0.74
332.978	0.69
333.342	0.72
333.705	0.69
334.069	0.66
334.433	0.68
334.797	0.7
335.16	0.69
335.524	0.63
335.887	0.58
336.251	0.55
336.614	0.5
336.978	0.48
337.341	0.46
337.705	0.38
338.068	0.48
338.431	0.45
338.794	0.44
339.158	0.49
339.521	0.53
339.884	0.55
340.247	0.49
340.61	0.56
340.973	0.54
341.336	0.54
341.699	0.54
342.062	0.58
342.424	0.59
342.787	0.54
343.15	0.47
343.512	0.47
343.875	0.41
344.238	0.4
344.6	0.45
344.963	0.51
345.325	0.5
345.688	0.53
346.05	0.56
346.412	0.57
346.775	0.63
347.137	0.55
347.499	0.59
347.861	0.59
348.223	0.58
348.585	0.58
348.947	0.63
349.309	0.63
349.671	0.56
350.033	0.6
350.395	0.62
350.757	0.66
351.118	0.64
351.48	0.61
351.842	0.62
352.203	0.66
352.565	0.63
352.927	0.67
353.288	0.7
353.65	0.69
354.011	0.66
354.372	0.67
354.734	0.62
355.095	0.59
355.456	0.56
355.817	0.5
356.179	0.48
356.54	0.42
356.901	0.33
357.262	0.32
357.623	0.26
357.984	0.2
358.345	0.22
358.705	0.26
359.066	0.22
359.427	0.25
359.788	0.21
360.148	0.23
360.509	0.29
360.87	0.33
361.23	0.33
361.591	0.4
361.951	0.35
362.312	0.31
362.672	0.34
363.032	0.34
363.393	0.36
363.753	0.46
364.113	0.42
364.473	0.43
364.833	0.48
365.193	0.51
365.553	0.54
365.913	0.55
366.273	0.58
366.633	0.67
366.993	0.67
367.353	0.74
367.713	0.79
368.072	0.81
368.432	0.8
368.792	0.77
369.151	0.73
369.511	0.67
369.87	0.67
370.23	0.71
370.589	0.64
370.949	0.64
371.308	0.62
371.667	0.56
372.027	0.6
372.386	0.59
372.745	0.51
373.104	0.62
373.463	0.65
373.822	0.62
374.181	0.61
374.54	0.63
374.899	0.65
375.258	0.63
375.617	0.56
375.975	0.55
376.334	0.54
376.693	0.53
377.052	0.56
377.41	0.52
377.769	0.53
378.127	0.54
378.486	0.58
378.844	0.56
379.202	0.5
379.561	0.49
379.919	0.46
380.277	0.42
380.636	0.41
380.994	0.29
381.352	0.26
381.71	0.28
382.068	0.27
382.426	0.23
382.784	0.29
383.142	0.29
383.5	0.27
383.857	0.31
384.215	0.27
384.573	0.31
384.931	0.24
385.288	0.19
385.646	0.14
386.003	0.1
386.361	0.15
386.718	0.19
387.076	0.2
387.433	0.16
387.791	0.17
388.148	0.15
388.505	0.15
388.862	0.21
389.22	0.25
389.577	0.19
389.934	0.28
390.291	0.25
390.648	0.27
391.005	0.25
391.362	0.28
391.718	0.33
392.075	0.31
392.432	0.28
392.789	0.3
393.145	0.32
393.502	0.31
393.859	0.3
394.215	0.34
394.572	0.35
394.928	0.36
395.285	0.31
395.641	0.26
395.997	0.31
396.354	0.32
396.71	0.32
397.066	0.35
397.422	0.39
397.778	0.3
398.134	0.3
398.491	0.34
398.846	0.34
399.202	0.34
399.558	0.36
399.914	0.35
400.27	0.38
400.626	0.28
400.981	0.26
401.337	0.31
401.693	0.2
402.048	0.22
402.404	0.21
402.759	0.3
403.115	0.31
403.47	0.38
403.826	0.33
404.181	0.36
404.536	0.4
404.892	0.37
405.247	0.36
405.602	0.3
405.957	0.34
406.312	0.31
406.667	0.4
407.022	0.36
407.377	0.37
407.732	0.34
408.087	0.39
408.442	0.42
408.796	0.39
409.151	0.37
409.506	0.34
409.86	0.43
410.215	0.49
410.57	0.49
410.924	0.55
411.279	0.53
411.633	0.57
411.987	0.53
412.342	0.45
412.696	0.5
413.05	0.5
413.404	0.5
413.758	0.62
414.113	0.67
414.467	0.75
414.821	0.77
415.175	0.79
415.529	0.77
415.882	0.86
416.236	0.92
416.59	0.95
416.944	0.95
417.298	0.95
417.651	1.01
418.005	1.04
418.358	1.16
418.712	1.18
419.065	1.16
419.419	1.21
419.772	1.17
420.126	1.25
420.479	1.28
420.832	1.29
421.185	1.38
421.539	1.39
421.892	1.4
422.245	1.41
422.598	1.37
422.951	1.4
423.304	1.46
423.657	1.47
424.01	1.44
424.363	1.47
424.715	1.52
425.068	1.58
425.421	1.68
425.773	1.69
426.126	1.82
426.479	1.86
426.831	1.89
427.184	1.91
427.536	2
427.889	1.99
428.241	2.05
428.593	2.13
428.945	2.2
429.298	2.2
429.65	2.26
430.002	2.28
430.354	2.34
430.706	2.38
431.058	2.43
431.41	2.4
431.762	2.44
432.114	2.38
432.466	2.39
432.817	2.48
433.169	2.57
433.521	2.54
433.872	2.53
434.224	2.55
434.576	2.58
434.927	2.47
435.279	2.49
435.63	2.46
435.981	2.47
436.333	2.42
436.684	2.43
437.035	2.43
437.387	2.39
437.738	2.28
438.089	2.3
438.44	2.28
438.791	2.26
439.142	2.25
439.493	2.21
439.844	2.21
440.195	2.19
440.545	2.27
440.896	2.34
441.247	2.34
441.598	2.26
441.948	2.23
442.299	2.23
442.649	2.23
443	2.21
443.35	2.22
443.701	2.16
444.051	2.15
444.401	2.16
444.752	2.14
445.102	2.07
445.452	2.08
445.802	2.05
446.152	2.08
446.502	2.19
446.852	2.21
447.202	2.22
447.552	2.21
447.902	2.23
448.252	2.31
448.602	2.79
448.952	2.75
449.301	2.78
449.651	2.82
450.001	2.91
450.35	3.03
450.7	3.05
451.049	3.08
451.399	3.07
451.748	3.1
452.097	3.05
452.447	3.07
452.796	3.17
453.145	3.31
453.494	3.35
453.843	3.4
454.193	3.48
454.542	3.66
454.891	3.65
455.239	3.65
455.588	3.63
455.937	3.72
456.286	3.85
456.635	3.89
456.984	3.93
457.332	3.46
457.681	3.54
458.03	3.52
458.378	3.59
458.727	3.6
459.075	3.62
459.423	3.76
459.772	3.8
460.12	3.85
460.468	3.92
460.817	4.16
461.165	4.35
461.513	4.32
461.861	4.36
462.209	4.37
462.557	4.36
462.905	4.33
463.253	4.26
463.601	4.41
463.949	4.43
464.297	4.51
464.644	4.5
464.992	4.48
465.34	4.49
465.687	4.51
466.035	4.59
466.383	4.6
466.73	4.49
467.078	4.48
467.425	4.48
467.772	4.39
468.12	4.29
468.467	4.33
468.814	4.31
469.161	4.22
469.508	4.16
469.856	4.03
470.203	3.97
470.55	3.8
470.897	3.8
471.243	3.86
471.59	3.84
471.937	3.77
472.284	3.68
472.631	3.65
472.977	3.61
473.324	3.65
473.671	3.6
474.017	3.56
474.364	3.52
474.71	3.38
475.057	3.41
475.403	3.39
475.749	3.31
476.096	3.23
476.442	3.28
476.788	3.21
477.134	3.22
477.48	3.15
477.826	3.14
478.172	3.13
478.518	3.17
478.864	3.21
479.21	3.29
479.556	3.24
479.902	3.26
480.248	3.27
480.593	3.27
480.939	3.22
481.285	3.3
481.63	3.32
481.976	3.26
482.321	3.23
482.667	3.25
483.012	3.28
483.357	3.36
483.703	3.41
484.048	3.55
484.393	3.68
484.738	3.81
485.084	3.88
485.429	4.05
485.774	4.15
486.119	4.33
486.464	4.48
486.808	4.57
487.153	4.71
487.498	4.87
487.843	4.94
488.188	5.15
488.532	5.28
488.877	5.51
489.222	5.82
489.566	6.07
489.911	6.29
490.255	6.53
490.6	6.85
490.944	7.14
491.288	7.37
491.633	7.63
491.977	7.85
492.321	8.12
492.665	8.38
493.009	8.66
493.353	8.94
493.697	9.17
494.041	9.45
494.385	9.7
494.729	9.92
495.073	10.2
495.417	10.47
495.76	10.81
496.104	11.04
496.448	11.38
496.791	11.65
497.135	11.9
497.479	12.14
497.822	12.32
498.165	12.55
498.509	12.81
498.852	13.06
499.196	13.25
499.539	13.51
499.882	13.79
500.225	14
500.568	14.23
500.911	14.42
501.254	14.67
501.597	14.75
501.94	14.84
502.283	15.04
502.626	15.16
502.969	15.23
503.312	15.39
503.654	15.45
503.997	15.66
504.34	15.77
504.682	15.89
505.025	16.08
505.367	16.2
505.71	16.39
506.052	16.45
506.395	16.53
506.737	16.63
507.079	16.66
507.421	16.74
507.764	16.86
508.106	16.95
508.448	16.99
508.79	17.05
509.132	17.12
509.474	17.11
509.816	17.04
510.158	17.15
510.499	17.3
510.841	17.35
511.183	17.45
511.525	17.6
511.866	17.67
512.208	17.67
512.549	17.62
512.891	17.56
513.232	17.54
513.574	17.49
513.915	17.49
514.256	17.44
514.598	17.5
514.939	17.54
515.28	17.52
515.621	17.49
515.962	17.45
516.303	17.49
516.644	17.46
516.985	17.52
517.326	17.46
517.667	17.46
518.008	17.48
518.349	17.48
518.69	17.44
519.03	17.42
519.371	17.42
519.712	17.36
520.052	17.28
520.393	17.27
520.733	17.36
521.074	17.34
521.414	17.35
521.754	17.4
522.095	17.32
522.435	17.33
522.775	17.32
523.115	17.27
523.455	17.2
523.795	17.24
524.135	17.26
524.475	17.27
524.815	17.2
525.155	17.19
525.495	17.16
525.835	17.26
526.175	17.18
526.514	17.21
526.854	17.2
527.194	17.17
527.533	17.08
527.873	16.98
528.212	16.95
528.552	16.93
528.891	16.84
529.23	16.78
529.57	16.75
529.909	16.73
530.248	16.64
530.587	16.7
530.927	16.55
531.266	16.52
531.605	16.57
531.944	16.59
532.283	16.47
532.621	16.35
532.96	16.46
533.299	16.36
533.638	16.25
533.977	16.16
534.315	16.19
534.654	16.17
534.992	16.12
535.331	15.98
535.67	16
536.008	15.89
536.346	15.88
536.685	15.98
537.023	15.98
537.361	16
537.7	16.03
538.038	15.96
538.376	15.92
538.714	15.94
539.052	15.92
539.39	15.92
539.728	15.97
540.066	15.93
540.404	15.87
540.741	15.86
541.079	15.93
541.417	15.68
541.755	15.69
542.092	15.7
542.43	15.7
542.767	15.61
543.105	15.57
543.442	15.52
543.78	15.57
544.117	15.5
544.454	15.63
544.792	15.63
545.129	15.45
545.466	15.49
545.803	15.51
546.14	15.39
546.477	15.45
546.814	15.38
547.151	15.3
547.488	15.18
547.825	15.15
548.162	14.99
548.499	14.94
548.835	15.01
549.172	15.01
549.509	15.05
549.845	15.22
550.182	15.27
550.518	15.25
550.855	15.24
551.191	15.18
551.528	15.12
551.864	15.13
552.2	15.22
552.537	15.34
552.873	15.27
553.209	15.28
553.545	15.29
553.881	15.31
554.217	15.24
554.553	15.39
554.889	15.42
555.225	15.54
555.561	15.61
555.896	15.71
556.232	15.75
556.568	15.85
556.903	15.94
557.239	15.97
557.575	15.96
557.91	15.96
558.245	15.98
558.581	16.03
558.916	16.09
559.252	16.05
559.587	16.15
559.922	16.32
560.257	16.37
560.592	16.44
560.928	16.32
561.263	16.4
561.598	16.54
561.933	16.6
562.267	16.66
562.602	16.81
562.937	16.92
563.272	16.94
563.607	16.99
563.941	17.09
564.276	17.18
564.611	17.31
564.945	17.38
565.28	17.46
565.614	17.53
565.949	17.64
566.283	17.76
566.617	17.69
566.951	17.71
567.286	17.79
567.62	17.92
567.954	18.03
568.288	18.11
568.622	18.11
568.956	18.11
569.29	18.22
569.624	18.22
569.958	18.29
570.292	18.36
570.626	18.33
570.959	18.34
571.293	18.47
571.627	18.52
571.96	18.59
572.294	18.59
572.627	18.61
572.961	18.77
573.294	18.86
573.627	18.89
573.961	18.98
574.294	19.07
574.627	19.08
574.961	19.23
575.294	19.38
575.627	19.45
575.96	19.63
576.293	19.57
576.626	19.62
576.959	19.73
577.292	19.82
577.624	19.9
577.957	20.02
578.29	20.02
578.623	20.13
578.955	20.27
579.288	20.39
579.62	20.37
579.953	20.44
580.285	20.54
580.618	20.71
580.95	20.85
581.282	20.83
581.615	20.84
581.947	20.97
582.279	21.07
582.611	21.1
582.943	21.24
583.275	21.35
583.607	21.44
583.939	21.54
584.271	21.5
584.603	21.66
584.935	21.65
585.267	21.68
585.598	21.74
585.93	21.79
586.262	21.82
586.593	21.88
586.925	21.89
587.256	21.89
587.588	21.87
587.919	21.97
588.25	22.06
588.582	22.11
588.913	22.12
589.244	22.16
589.575	22.29
589.907	22.35
590.238	22.44
590.569	22.46
590.9	22.59
591.231	22.72
591.562	22.72
591.892	22.78
592.223	22.93
592.554	23.03
592.885	23.09
593.215	23.33
593.546	23.48
593.877	23.57
594.207	23.68
594.538	23.79
594.868	23.95
595.198	24.01
595.529	24.08
595.859	24.22
596.189	24.33
596.52	24.46
596.85	24.48
597.18	24.61
597.51	24.73
597.84	24.77
598.17	24.87
598.5	24.93
598.83	25.05
599.16	25.25
599.489	25.36
599.819	25.59
600.149	25.58
600.479	25.73
600.808	25.87
601.138	26.01
601.467	26.05
601.797	26.19
602.126	26.29
602.456	26.51
602.785	26.67
603.114	26.73
603.443	26.93
603.773	27.14
604.102	27.35
604.431	27.48
604.76	27.57
605.089	27.82
605.418	27.91
605.747	28.06
606.076	28.24
606.405	28.49
606.733	28.54
607.062	28.76
607.391	28.8
607.72	28.82
608.048	28.9
608.377	29.14
608.705	29.27
609.034	29.36
609.362	29.63
609.69	29.96
610.019	30.14
610.347	30.37
610.675	30.38
611.004	30.42
611.332	30.57
611.66	30.91
611.988	31.02
612.316	31.2
612.644	31.18
612.972	31.36
613.3	31.36
613.627	31.56
613.955	31.54
614.283	31.68
614.611	31.69
614.938	31.85
615.266	31.93
615.593	32.09
615.921	32.21
616.248	32.4
616.576	32.59
616.903	32.92
617.23	33.24
617.558	33.47
617.885	33.5
618.212	33.6
618.539	33.78
618.866	33.8
619.193	34.13
619.52	34.39
619.847	34.37
620.174	34.7
620.501	34.78
620.828	35.17
621.155	35.39
621.481	35.52
621.808	35.65
622.135	35.91
622.461	36.15
622.788	36.27
623.114	36.67
623.441	36.81
623.767	37.12
624.093	37.41
624.42	37.54
624.746	37.88
625.072	37.82
625.398	37.89
625.725	38.06
626.051	38.36
626.377	38.66
626.703	38.77
627.029	39.02
627.354	39.11
627.68	39.11
628.006	39.18
628.332	39.18
628.658	39.21
628.983	39.07
629.309	39.25
629.634	39.58
629.96	39.77
630.285	39.96
630.611	39.74
630.936	40.21
631.262	40.17
631.587	39.99
631.912	39.56
632.237	39.6
632.562	40.06
632.887	40
633.213	40.29
633.538	40.78
633.863	40.85
634.187	41
634.512	41.18
634.837	41.28
635.162	41.66
635.487	41.76
635.811	42.25
636.136	42.69
636.461	42.83
636.785	43.09
637.11	43.68
637.434	44.22
637.758	44.47
638.083	44.97
638.407	44.68
638.731	44.79
639.056	45.26
639.38	45.39
639.704	45.74
640.028	46.24
640.352	46.72
640.676	46.93
641	47.05
641.324	46.83
641.648	46.99
641.972	46.54
642.295	46.74
642.619	46.52
642.943	46.47
643.266	45.8
643.59	45.38
643.913	45.65
644.237	44.89
644.56	44.53
644.884	43.93
645.207	43.84
645.53	43.64
645.854	43.61
646.177	43.06
646.5	43.3
646.823	43.98
647.146	43.56
647.469	43.43
647.792	43.43
648.115	43.69
648.438	43.89
648.761	45.61
649.084	47.3
649.406	47.97
649.729	47.52
650.052	47.24
650.374	46.99
650.697	47.17
651.019	47.16
651.342	47.36
651.664	47.58
651.987	47.43
652.309	47.61
652.631	47.63
652.953	47.74
653.276	47.65
653.598	47.57
653.92	47.75
654.242	47.93
654.564	47.97
654.886	47.8
655.208	47.89
655.53	47.88
655.851	47.8
656.173	48.07
656.495	48.08
656.816	47.31
657.138	46.42
657.46	45.62
657.781	45.86
658.103	47.04
658.424	47.88
658.746	47.3
659.067	47.63
659.388	47.27
659.709	47.06
660.031	47.12
660.352	47.15
660.673	47.52
660.994	47.79
661.315	47.92
661.636	48.09
661.957	48.03
662.278	47.85
662.599	48.14
662.919	48.15
663.24	48.62
663.561	48.5
663.881	49.15
664.202	47.74
