Data from T2__Reflection__8__23-58-59-860.txt Node

Date: Fri Jun 04 23:58:59 CEST 2021
User: mabdelazizm
Spectrometer: FLMS18565
Trigger mode: 0
Integration Time (sec): 2.000000E0
Scans to average: 1
Electric dark correction enabled: true
Nonlinearity correction enabled: false
Boxcar width: 12
XAxis mode: Wavelengths
Number of Pixels in Spectrum: 2048
>>>>>Begin Spectral Data<<<<<
179.071	69.03
179.452	82.23
179.833	101
180.214	137.97
180.595	133.15
180.977	292.65
181.358	59.51
181.739	136.43
182.12	102.74
182.501	170.1
182.882	164.18
183.262	230.26
183.643	-588.7
184.024	-95.94
184.405	-34.62
184.786	-8.08
185.166	0.92
185.547	4.07
185.927	21.62
186.308	29.9
186.689	34.36
187.069	38.33
187.449	29.87
187.83	29.94
188.21	15.95
188.59	19.68
188.971	25.25
189.351	26.58
189.731	31.01
190.111	18.83
190.491	13.77
190.871	5.89
191.251	15.32
191.631	23.93
192.011	21.97
192.391	16.93
192.771	17.21
193.151	15.74
193.531	13.43
193.91	13.35
194.29	13.16
194.67	14
195.049	15.33
195.429	14.51
195.808	9.54
196.188	9.15
196.567	11.94
196.946	11.96
197.326	11.38
197.705	10.57
198.084	9.8
198.464	7.87
198.843	7.58
199.222	7.15
199.601	10.35
199.98	13.22
200.359	15.43
200.738	13.07
201.117	4.49
201.496	7.76
201.875	9.92
202.254	8.88
202.632	10.78
203.011	12.96
203.39	12.56
203.768	11.27
204.147	11.9
204.525	8.1
204.904	5.84
205.282	8.61
205.661	7.47
206.039	6.22
206.418	6.11
206.796	7.63
207.174	6.55
207.552	6.4
207.931	5.08
208.309	5.81
208.687	3.08
209.065	2.68
209.443	-2.55
209.821	-1
210.199	-1.73
210.577	4.7
210.954	6.16
211.332	3.83
211.71	3.56
212.088	5.61
212.465	3.29
212.843	5.57
213.221	8.86
213.598	7.15
213.976	8.29
214.353	8.24
214.731	7.44
215.108	6.93
215.485	6.25
215.863	4.13
216.24	3.38
216.617	4.18
216.994	5.3
217.371	5.72
217.749	6
218.126	8.17
218.503	7.47
218.88	9.5
219.256	9.41
219.633	9.55
220.01	7.13
220.387	7
220.764	7.33
221.14	7.13
221.517	6.45
221.894	6.31
222.27	4.99
222.647	4.53
223.023	4.5
223.4	4.7
223.776	5.08
224.153	4.94
224.529	5.09
224.905	6.03
225.282	6.42
225.658	5.53
226.034	5.67
226.41	5.78
226.786	5.43
227.162	4.95
227.538	4.38
227.914	4.03
228.29	4.02
228.666	3.63
229.042	3.46
229.418	3.7
229.793	3.81
230.169	3.83
230.545	3.78
230.92	3.62
231.296	3.76
231.672	3.96
232.047	3.83
232.422	3.77
232.798	3.75
233.173	3.73
233.549	3.87
233.924	3.79
234.299	3.53
234.674	3.65
235.05	3.94
235.425	3.9
235.8	3.73
236.175	3.8
236.55	3.88
236.925	4.06
237.3	4.16
237.675	4.11
238.049	4.24
238.424	4.23
238.799	4.24
239.174	4.33
239.548	4.33
239.923	4.29
240.297	4.22
240.672	4.23
241.046	4.2
241.421	4.15
241.795	4.13
242.17	4.13
242.544	4.11
242.918	3.94
243.293	3.9
243.667	3.89
244.041	3.9
244.415	3.87
244.789	3.83
245.163	3.9
245.537	3.9
245.911	3.86
246.285	3.78
246.659	3.75
247.033	3.8
247.406	3.73
247.78	3.73
248.154	3.69
248.528	3.59
248.901	3.67
249.275	3.71
249.648	3.74
250.022	3.74
250.395	3.78
250.769	3.8
251.142	3.85
251.515	3.83
251.888	3.88
252.262	3.96
252.635	3.96
253.008	3.91
253.381	3.9
253.754	3.89
254.127	3.93
254.5	3.87
254.873	3.81
255.246	3.83
255.619	3.89
255.992	3.93
256.364	3.89
256.737	3.87
257.11	3.87
257.483	3.9
257.855	3.87
258.228	3.77
258.6	3.76
258.973	3.84
259.345	3.84
259.718	3.85
260.09	3.86
260.462	3.82
260.834	3.87
261.207	3.8
261.579	3.77
261.951	3.79
262.323	3.84
262.695	3.85
263.067	3.84
263.439	3.83
263.811	3.87
264.183	3.92
264.555	3.86
264.927	3.79
265.298	3.78
265.67	3.79
266.042	3.81
266.413	3.81
266.785	3.79
267.156	3.8
267.528	3.85
267.899	3.83
268.271	3.74
268.642	3.7
269.013	3.64
269.385	3.55
269.756	3.52
270.127	3.5
270.498	3.49
270.87	3.49
271.241	3.52
271.612	3.5
271.983	3.47
272.354	3.49
272.724	3.49
273.095	3.47
273.466	3.46
273.837	3.48
274.208	3.53
274.578	3.48
274.949	3.48
275.32	3.48
275.69	3.5
276.061	3.52
276.431	3.55
276.802	3.49
277.172	3.48
277.542	3.49
277.913	3.51
278.283	3.54
278.653	3.61
279.023	3.64
279.394	3.68
279.764	3.68
280.134	3.68
280.504	3.7
280.874	3.71
281.244	3.74
281.614	3.69
281.983	3.67
282.353	3.64
282.723	3.63
283.093	3.61
283.462	3.59
283.832	3.57
284.202	3.57
284.571	3.5
284.941	3.45
285.31	3.42
285.68	3.42
286.049	3.46
286.418	3.46
286.788	3.41
287.157	3.34
287.526	3.31
287.895	3.27
288.264	3.26
288.633	3.23
289.002	3.2
289.371	3.15
289.74	3.11
290.109	3.05
290.478	3.01
290.847	3.02
291.216	2.97
291.585	2.96
291.953	2.92
292.322	2.93
292.691	2.89
293.059	2.87
293.428	2.88
293.796	2.92
294.165	2.95
294.533	2.91
294.901	2.84
295.27	2.77
295.638	2.78
296.006	2.81
296.374	2.84
296.743	2.8
297.111	2.76
297.479	2.78
297.847	2.7
298.215	2.74
298.583	2.73
298.95	2.72
299.318	2.77
299.686	2.76
300.054	2.72
300.422	2.73
300.789	2.79
301.157	2.77
301.525	2.73
301.892	2.71
302.26	2.72
302.627	2.65
302.994	2.62
303.362	2.57
303.729	2.61
304.097	2.66
304.464	2.73
304.831	2.66
305.198	2.67
305.565	2.65
305.932	2.65
306.299	2.65
306.666	2.63
307.033	2.61
307.4	2.58
307.767	2.59
308.134	2.56
308.501	2.5
308.867	2.48
309.234	2.53
309.601	2.56
309.967	2.43
310.334	2.44
310.701	2.47
311.067	2.49
311.433	2.51
311.8	2.54
312.166	2.53
312.533	2.55
312.899	2.48
313.265	2.43
313.631	2.37
313.997	2.39
314.363	2.4
314.729	2.39
315.096	2.34
315.461	2.36
315.827	2.3
316.193	2.36
316.559	2.41
316.925	2.44
317.291	2.42
317.656	2.41
318.022	2.43
318.388	2.41
318.753	2.36
319.119	2.39
319.484	2.37
319.85	2.36
320.215	2.32
320.581	2.29
320.946	2.31
321.311	2.34
321.676	2.3
322.042	2.32
322.407	2.34
322.772	2.34
323.137	2.33
323.502	2.3
323.867	2.28
324.232	2.26
324.597	2.21
324.962	2.27
325.327	2.22
325.691	2.22
326.056	2.21
326.421	2.22
326.785	2.24
327.15	2.19
327.514	2.2
327.879	2.2
328.243	2.17
328.608	2.21
328.972	2.18
329.337	2.18
329.701	2.2
330.065	2.12
330.429	2.02
330.794	2.02
331.158	2.03
331.522	1.99
331.886	1.97
332.25	1.92
332.614	1.91
332.978	1.9
333.342	1.93
333.705	1.91
334.069	1.86
334.433	1.86
334.797	1.85
335.16	1.87
335.524	1.82
335.887	1.75
336.251	1.76
336.614	1.69
336.978	1.69
337.341	1.75
337.705	1.68
338.068	1.7
338.431	1.73
338.794	1.67
339.158	1.72
339.521	1.75
339.884	1.78
340.247	1.7
340.61	1.68
340.973	1.66
341.336	1.69
341.699	1.66
342.062	1.69
342.424	1.74
342.787	1.75
343.15	1.68
343.512	1.66
343.875	1.58
344.238	1.49
344.6	1.49
344.963	1.51
345.325	1.43
345.688	1.46
346.05	1.41
346.412	1.33
346.775	1.38
347.137	1.38
347.499	1.36
347.861	1.41
348.223	1.36
348.585	1.33
348.947	1.35
349.309	1.41
349.671	1.41
350.033	1.45
350.395	1.45
350.757	1.44
351.118	1.39
351.48	1.3
351.842	1.33
352.203	1.36
352.565	1.35
352.927	1.42
353.288	1.43
353.65	1.47
354.011	1.49
354.372	1.6
354.734	1.6
355.095	1.64
355.456	1.62
355.817	1.55
356.179	1.53
356.54	1.53
356.901	1.47
357.262	1.53
357.623	1.56
357.984	1.48
358.345	1.49
358.705	1.48
359.066	1.49
359.427	1.49
359.788	1.49
360.148	1.58
360.509	1.67
360.87	1.68
361.23	1.67
361.591	1.72
361.951	1.71
362.312	1.69
362.672	1.73
363.032	1.75
363.393	1.7
363.753	1.7
364.113	1.7
364.473	1.73
364.833	1.78
365.193	1.77
365.553	1.74
365.913	1.72
366.273	1.73
366.633	1.71
366.993	1.74
367.353	1.73
367.713	1.78
368.072	1.82
368.432	1.9
368.792	1.9
369.151	1.84
369.511	1.76
369.87	1.76
370.23	1.8
370.589	1.75
370.949	1.67
371.308	1.71
371.667	1.63
372.027	1.62
372.386	1.65
372.745	1.62
373.104	1.63
373.463	1.68
373.822	1.6
374.181	1.57
374.54	1.62
374.899	1.66
375.258	1.63
375.617	1.61
375.975	1.55
376.334	1.53
376.693	1.44
377.052	1.38
377.41	1.27
377.769	1.25
378.127	1.24
378.486	1.23
378.844	1.26
379.202	1.22
379.561	1.25
379.919	1.3
380.277	1.27
380.636	1.29
380.994	1.23
381.352	1.18
381.71	1.21
382.068	1.26
382.426	1.21
382.784	1.28
383.142	1.27
383.5	1.27
383.857	1.26
384.215	1.2
384.573	1.19
384.931	1.22
385.288	1.21
385.646	1.25
386.003	1.27
386.361	1.31
386.718	1.37
387.076	1.4
387.433	1.42
387.791	1.37
388.148	1.35
388.505	1.32
388.862	1.29
389.22	1.32
389.577	1.32
389.934	1.32
390.291	1.32
390.648	1.32
391.005	1.29
391.362	1.35
391.718	1.36
392.075	1.41
392.432	1.36
392.789	1.42
393.145	1.44
393.502	1.52
393.859	1.48
394.215	1.52
394.572	1.52
394.928	1.46
395.285	1.4
395.641	1.35
395.997	1.38
396.354	1.34
396.71	1.39
397.066	1.47
397.422	1.47
397.778	1.52
398.134	1.5
398.491	1.47
398.846	1.58
399.202	1.61
399.558	1.61
399.914	1.55
400.27	1.5
400.626	1.45
400.981	1.39
401.337	1.41
401.693	1.32
402.048	1.34
402.404	1.2
402.759	1.23
403.115	1.24
403.47	1.29
403.826	1.31
404.181	1.33
404.536	1.32
404.892	1.3
405.247	1.37
405.602	1.28
405.957	1.25
406.312	1.23
406.667	1.23
407.022	1.23
407.377	1.21
407.732	1.16
408.087	1.13
408.442	1.07
408.796	1.1
409.151	1.22
409.506	1.22
409.86	1.32
410.215	1.36
410.57	1.39
410.924	1.43
411.279	1.55
411.633	1.67
411.987	1.66
412.342	1.69
412.696	1.67
413.05	1.61
413.404	1.66
413.758	1.73
414.113	1.66
414.467	1.73
414.821	1.74
415.175	1.82
415.529	1.78
415.882	1.82
416.236	1.83
416.59	1.8
416.944	1.86
417.298	1.87
417.651	1.86
418.005	1.78
418.358	1.85
418.712	1.79
419.065	1.77
419.419	1.75
419.772	1.71
420.126	1.68
420.479	1.65
420.832	1.64
421.185	1.65
421.539	1.69
421.892	1.83
422.245	1.75
422.598	1.72
422.951	1.8
423.304	1.79
423.657	1.8
424.01	1.73
424.363	1.8
424.715	1.83
425.068	1.94
425.421	2.04
425.773	2.02
426.126	2.13
426.479	2.18
426.831	2.16
427.184	2.21
427.536	2.28
427.889	2.34
428.241	2.37
428.593	2.39
428.945	2.45
429.298	2.37
429.65	2.43
430.002	2.38
430.354	2.38
430.706	2.4
431.058	2.47
431.41	2.47
431.762	2.45
432.114	2.41
432.466	2.4
432.817	2.44
433.169	2.42
433.521	2.45
433.872	2.44
434.224	2.35
434.576	2.4
434.927	2.38
435.279	2.39
435.63	2.34
435.981	2.29
436.333	2.26
436.684	2.19
437.035	2.26
437.387	2.29
437.738	2.31
438.089	2.32
438.44	2.28
438.791	2.29
439.142	2.31
439.493	2.25
439.844	2.22
440.195	2.2
440.545	2.3
440.896	2.38
441.247	2.46
441.598	2.4
441.948	2.45
442.299	2.43
442.649	2.4
443	2.42
443.35	2.4
443.701	2.31
444.051	2.28
444.401	2.35
444.752	2.39
445.102	2.35
445.452	2.34
445.802	2.37
446.152	2.33
446.502	2.4
446.852	2.44
447.202	2.42
447.552	2.41
447.902	2.43
448.252	2.5
448.602	2.66
448.952	2.67
449.301	2.62
449.651	2.58
450.001	2.57
450.35	2.68
450.7	2.59
451.049	2.51
451.399	2.54
451.748	2.57
452.097	2.64
452.447	2.73
452.796	2.75
453.145	2.84
453.494	2.84
453.843	2.88
454.193	2.92
454.542	2.95
454.891	3.04
455.239	2.97
455.588	2.96
455.937	3.02
456.286	3.12
456.635	3.14
456.984	3.16
457.332	3.12
457.681	3.22
458.03	3.2
458.378	3.27
458.727	3.33
459.075	3.35
459.423	3.45
459.772	3.53
460.12	3.58
460.468	3.71
460.817	3.75
461.165	3.75
461.513	3.88
461.861	3.88
462.209	3.94
462.557	4
462.905	3.99
463.253	3.98
463.601	4.08
463.949	4.2
464.297	4.29
464.644	4.29
464.992	4.33
465.34	4.34
465.687	4.34
466.035	4.35
466.383	4.25
466.73	4.31
467.078	4.33
467.425	4.2
467.772	4.17
468.12	4.09
468.467	4.17
468.814	4.06
469.161	3.92
469.508	3.88
469.856	3.8
470.203	3.71
470.55	3.6
470.897	3.53
471.243	3.51
471.59	3.54
471.937	3.45
472.284	3.37
472.631	3.26
472.977	3.24
473.324	3.26
473.671	3.12
474.017	3.12
474.364	3.01
474.71	2.92
475.057	2.95
475.403	2.94
475.749	2.88
476.096	2.98
476.442	3.02
476.788	3.01
477.134	3.02
477.48	2.95
477.826	2.95
478.172	2.95
478.518	3.02
478.864	3.05
479.21	3.09
479.556	3.07
479.902	3.09
480.248	3.16
480.593	3.23
480.939	3.2
481.285	3.32
481.63	3.31
481.976	3.34
482.321	3.4
482.667	3.48
483.012	3.6
483.357	3.61
483.703	3.67
484.048	3.74
484.393	3.87
484.738	3.99
485.084	4.05
485.429	4.22
485.774	4.35
486.119	4.54
486.464	4.73
486.808	4.86
487.153	5
487.498	5.22
487.843	5.4
488.188	5.68
488.532	5.98
488.877	6.27
489.222	6.57
489.566	6.9
489.911	7.21
490.255	7.61
490.6	8.04
490.944	8.48
491.288	8.84
491.633	9.3
491.977	9.79
492.321	10.23
492.665	10.74
493.009	11.2
493.353	11.64
493.697	12.14
494.041	12.66
494.385	13.17
494.729	13.73
495.073	14.29
495.417	14.9
495.76	15.6
496.104	16.21
496.448	16.81
496.791	17.42
497.135	18.01
497.479	18.62
497.822	19.24
498.165	19.91
498.509	20.57
498.852	21.23
499.196	21.81
499.539	22.45
499.882	23.12
500.225	23.74
500.568	24.37
500.911	25.07
501.254	25.69
501.597	26.31
501.94	26.88
502.283	27.51
502.626	28.18
502.969	28.75
503.312	29.42
503.654	30.02
503.997	30.61
504.34	31.27
504.682	31.77
505.025	32.43
505.367	33.02
505.71	33.61
506.052	34.15
506.395	34.68
506.737	35.24
507.079	35.76
507.421	36.3
507.764	36.93
508.106	37.43
508.448	38.02
508.79	38.39
509.132	38.93
509.474	39.38
509.816	39.87
510.158	40.42
510.499	41.02
510.841	41.5
511.183	41.95
511.525	42.4
511.866	42.67
512.208	43
512.549	43.39
512.891	43.6
513.232	43.96
513.574	44.25
513.915	44.71
514.256	45.01
514.598	45.45
514.939	45.87
515.28	46.21
515.621	46.52
515.962	46.81
516.303	47.13
516.644	47.48
516.985	47.7
517.326	48.1
517.667	48.31
518.008	48.71
518.349	48.96
518.69	49.21
519.03	49.47
519.371	49.69
519.712	49.82
520.052	50.1
520.393	50.41
520.733	50.7
521.074	50.98
521.414	51.32
521.754	51.69
522.095	52.05
522.435	52.26
522.775	52.47
523.115	52.62
523.455	52.87
523.795	52.97
524.135	53.09
524.475	53.39
524.815	53.62
525.155	53.85
525.495	54.13
525.835	54.37
526.175	54.56
526.514	54.67
526.854	54.88
527.194	54.94
527.533	54.97
527.873	55.05
528.212	55.33
528.552	55.44
528.891	55.71
529.23	55.86
529.57	56.02
529.909	56.2
530.248	56.28
530.587	56.41
530.927	56.42
531.266	56.57
531.605	56.74
531.944	56.72
532.283	56.78
532.621	56.97
532.96	57.09
533.299	57.08
533.638	57.08
533.977	57
534.315	57.02
534.654	57.2
534.992	57.16
535.331	57.14
535.67	57.34
536.008	57.34
536.346	57.41
536.685	57.47
537.023	57.5
537.361	57.46
537.7	57.56
538.038	57.66
538.376	57.65
538.714	57.77
539.052	57.86
539.39	57.91
539.728	57.91
540.066	57.92
540.404	58.06
540.741	58.29
541.079	58.28
541.417	58.2
541.755	58.18
542.092	58.19
542.43	58.21
542.767	58.25
543.105	58.18
543.442	58.27
543.78	58.26
544.117	58.15
544.454	58.22
544.792	58.26
545.129	58.36
545.466	58.37
545.803	58.56
546.14	58.49
546.477	58.36
546.814	58.36
547.151	58.33
547.488	58.27
547.825	58.31
548.162	58.23
548.499	58.24
548.835	58.24
549.172	58.17
549.509	58.32
549.845	58.38
550.182	58.38
550.518	58.49
550.855	58.67
551.191	58.7
551.528	58.78
551.864	58.73
552.2	58.83
552.537	58.86
552.873	58.88
553.209	59.09
553.545	58.93
553.881	58.89
554.217	58.87
554.553	59.06
554.889	59.15
555.225	59.27
555.561	59.3
555.896	59.28
556.232	59.21
556.568	59.34
556.903	59.1
557.239	59.11
557.575	59.23
557.91	59.21
558.245	59.29
558.581	59.43
558.916	59.52
559.252	59.37
559.587	59.46
559.922	59.46
560.257	59.42
560.592	59.34
560.928	59.45
561.263	59.67
561.598	59.64
561.933	59.7
562.267	59.9
562.602	59.81
562.937	59.76
563.272	59.84
563.607	59.89
563.941	59.98
564.276	59.93
564.611	60.1
564.945	60.2
565.28	60.61
565.614	60.63
565.949	60.52
566.283	60.64
566.617	60.71
566.951	60.7
567.286	60.7
567.62	60.82
567.954	60.89
568.288	60.87
568.622	60.93
568.956	60.94
569.29	60.96
569.624	60.9
569.958	60.99
570.292	61.01
570.626	60.94
570.959	60.85
571.293	60.9
571.627	60.9
571.96	60.79
572.294	60.73
572.627	60.79
572.961	60.84
573.294	60.78
573.627	60.76
573.961	60.77
574.294	60.94
574.627	60.85
574.961	60.8
575.294	60.86
575.627	60.9
575.96	60.97
576.293	60.87
576.626	60.99
576.959	60.91
577.292	60.97
577.624	60.94
577.957	60.9
578.29	60.84
578.623	60.91
578.955	60.95
579.288	61.08
579.62	60.99
579.953	60.98
580.285	61.07
580.618	61.14
580.95	61.24
581.282	61.21
581.615	61.31
581.947	61.29
582.279	61.28
582.611	61.14
582.943	61.23
583.275	61.27
583.607	61.3
583.939	61.27
584.271	61.18
584.603	61.32
584.935	61.17
585.267	61.36
585.598	61.43
585.93	61.44
586.262	61.47
586.593	61.55
586.925	61.47
587.256	61.48
587.588	61.44
587.919	61.5
588.25	61.55
588.582	61.5
588.913	61.43
589.244	61.39
589.575	61.37
589.907	61.4
590.238	61.4
590.569	61.58
590.9	61.6
591.231	61.56
591.562	61.58
591.892	61.55
592.223	61.54
592.554	61.55
592.885	61.42
593.215	61.48
593.546	61.44
593.877	61.49
594.207	61.65
594.538	61.61
594.868	61.51
595.198	61.5
595.529	61.58
595.859	61.56
596.189	61.57
596.52	61.64
596.85	61.68
597.18	61.79
597.51	61.82
597.84	61.82
598.17	61.78
598.5	61.75
598.83	61.73
599.16	61.71
599.489	61.64
599.819	61.73
600.149	61.78
600.479	61.83
600.808	61.82
601.138	61.7
601.467	61.71
601.797	61.65
602.126	61.49
602.456	61.43
602.785	61.53
603.114	61.56
603.443	61.6
603.773	61.51
604.102	61.61
604.431	61.6
604.76	61.5
605.089	61.43
605.418	61.22
605.747	61.2
606.076	61.21
606.405	61.28
606.733	61.27
607.062	61.26
607.391	61.29
607.72	61.36
608.048	61.22
608.377	60.99
608.705	60.76
609.034	60.76
609.362	60.89
609.69	61.01
610.019	61.12
610.347	61.09
610.675	60.81
611.004	60.72
611.332	60.61
611.66	60.47
611.988	60.48
612.316	60.38
612.644	60.31
612.972	60.24
613.3	60.33
613.627	60.52
613.955	60.33
614.283	60.29
614.611	60.27
614.938	60.26
615.266	60.11
615.593	60.12
615.921	60.1
616.248	60.25
616.576	60.31
616.903	60.56
617.23	60.58
617.558	60.6
617.885	60.4
618.212	60.33
618.539	60.19
618.866	60.23
619.193	60.32
619.52	60.3
619.847	60.47
620.174	60.53
620.501	60.37
620.828	60.52
621.155	60.49
621.481	60.53
621.808	60.31
622.135	60.31
622.461	60.4
622.788	59.96
623.114	60.07
623.441	60.02
623.767	60.15
624.093	60.35
624.42	60.21
624.746	60.15
625.072	60.17
625.398	60.08
625.725	60.04
626.051	60.04
626.377	59.8
626.703	59.82
627.029	59.89
627.354	59.79
627.68	59.68
628.006	59.38
628.332	59.21
628.658	59.2
628.983	59.02
629.309	58.97
629.634	58.87
629.96	58.86
630.285	58.87
630.611	58.79
630.936	59.3
631.262	59.09
631.587	58.7
631.912	58.7
632.237	58.09
632.562	57.78
632.887	58.11
633.213	57.94
633.538	58.03
633.863	58.16
634.187	58.12
634.512	58.16
634.837	58.29
635.162	58.87
635.487	58.65
635.811	58.94
636.136	59.4
636.461	59.31
636.785	59.63
637.11	60.04
637.434	60.4
637.758	60.39
638.083	60.83
638.407	60.71
638.731	60.51
639.056	60.73
639.38	60.69
639.704	60.93
640.028	60.6
640.352	60.85
640.676	60.91
641	60.46
641.324	60.49
641.648	60.35
641.972	59.79
642.295	60.09
642.619	60.17
642.943	59.94
643.266	59.02
643.59	59.11
643.913	59.11
644.237	58.63
644.56	58.71
644.884	58.58
645.207	58.63
645.53	58.38
645.854	58.45
646.177	58.3
646.5	58.19
646.823	58.41
647.146	58.28
647.469	58.08
647.792	58.29
648.115	58.46
648.438	58.47
648.761	59.12
649.084	59.62
649.406	59.98
649.729	59.83
650.052	59.72
650.374	59.45
650.697	59.38
651.019	59.5
651.342	59.58
651.664	59.77
651.987	59.76
652.309	59.9
652.631	59.94
652.953	59.99
653.276	59.98
653.598	60.04
653.92	59.98
654.242	59.95
654.564	60.07
654.886	60.08
655.208	60
655.53	60.12
655.851	60.03
656.173	60.08
656.495	60.07
656.816	59.89
657.138	59.62
657.46	59.06
657.781	58.93
658.103	59.67
658.424	60.25
658.746	60.58
659.067	60.35
659.388	60.15
659.709	58.84
660.031	58.85
660.352	58.52
660.673	58.09
660.994	57.67
661.315	56.66
661.636	56.15
661.957	56.43
662.278	56.37
662.599	56.53
662.919	55.56
663.24	55.48
663.561	54.51
663.881	54.42
664.202	53.67
664.523	53.67
