Data from T2__Reflection__80__00-53-23-751.txt Node

Date: Sat Jun 05 00:53:23 CEST 2021
User: mabdelazizm
Spectrometer: FLMS18565
Trigger mode: 0
Integration Time (sec): 2.000000E0
Scans to average: 1
Electric dark correction enabled: true
Nonlinearity correction enabled: false
Boxcar width: 12
XAxis mode: Wavelengths
Number of Pixels in Spectrum: 2048
>>>>>Begin Spectral Data<<<<<
179.071	73.68
179.452	85.26
179.833	70.62
180.214	87.34
180.595	227.04
180.977	1120.59
181.358	289.82
181.739	358.57
182.12	185.34
182.501	182.87
182.882	201.43
183.262	284.21
183.643	-529.45
184.024	-58.66
184.405	-15.8
184.786	13.44
185.166	31.94
185.547	37.28
185.927	35.82
186.308	24.94
186.689	25.76
187.069	30.84
187.449	23.34
187.83	20.62
188.21	10.33
188.59	10.44
188.971	12.72
189.351	11.28
189.731	13.06
190.111	13.49
190.491	14.05
190.871	11.08
191.251	19.21
191.631	18.89
192.011	15.66
192.391	13.16
192.771	14.49
193.151	15.3
193.531	14.71
193.91	17.13
194.29	14.77
194.67	9.96
195.049	9.64
195.429	7.12
195.808	8.13
196.188	8.13
196.567	6.51
196.946	10.45
197.326	11.54
197.705	12.25
198.084	14.21
198.464	14.3
198.843	11.76
199.222	14.17
199.601	16.6
199.98	18.11
200.359	17.41
200.738	17.47
201.117	14.74
201.496	13.55
201.875	14.24
202.254	13.45
202.632	13.21
203.011	15.04
203.39	15.53
203.768	17.16
204.147	21.29
204.525	18.21
204.904	18.4
205.282	19.05
205.661	19.87
206.039	21.41
206.418	19.06
206.796	20.41
207.174	18.51
207.552	16.06
207.931	15.4
208.309	15.37
208.687	11.16
209.065	11.23
209.443	10.2
209.821	10.22
210.199	8.6
210.577	10.78
210.954	14.5
211.332	12.29
211.71	12.14
212.088	12.59
212.465	10.02
212.843	9.74
213.221	11.16
213.598	9.32
213.976	10.76
214.353	10.26
214.731	11.13
215.108	10.77
215.485	8.61
215.863	7.31
216.24	6.22
216.617	8.2
216.994	7.82
217.371	7.03
217.749	7.21
218.126	9.75
218.503	8.06
218.88	8.41
219.256	8.63
219.633	9.51
220.01	8.68
220.387	7.85
220.764	8.31
221.14	7.09
221.517	6.69
221.894	6.41
222.27	5.53
222.647	4.55
223.023	4.14
223.4	3.83
223.776	2.84
224.153	1.55
224.529	2.08
224.905	3.05
225.282	3.27
225.658	3
226.034	2.91
226.41	2.91
226.786	2.66
227.162	2.34
227.538	1.87
227.914	1.94
228.29	1.86
228.666	1.35
229.042	1.18
229.418	1.17
229.793	1.14
230.169	1.24
230.545	1.28
230.92	1.16
231.296	1.08
231.672	1.35
232.047	1.27
232.422	1.11
232.798	1.13
233.173	1.08
233.549	1.26
233.924	1
234.299	0.66
234.674	0.77
235.05	0.96
235.425	0.85
235.8	0.66
236.175	0.62
236.55	0.73
236.925	0.8
237.3	0.78
237.675	0.71
238.049	0.9
238.424	0.88
238.799	0.83
239.174	0.86
239.548	0.76
239.923	0.77
240.297	0.71
240.672	0.79
241.046	0.69
241.421	0.67
241.795	0.67
242.17	0.61
242.544	0.73
242.918	0.63
243.293	0.62
243.667	0.64
244.041	0.58
244.415	0.53
244.789	0.5
245.163	0.57
245.537	0.59
245.911	0.55
246.285	0.5
246.659	0.45
247.033	0.51
247.406	0.42
247.78	0.42
248.154	0.47
248.528	0.43
248.901	0.54
249.275	0.52
249.648	0.5
250.022	0.41
250.395	0.47
250.769	0.47
251.142	0.59
251.515	0.59
251.888	0.53
252.262	0.58
252.635	0.6
253.008	0.55
253.381	0.54
253.754	0.48
254.127	0.52
254.5	0.5
254.873	0.45
255.246	0.42
255.619	0.42
255.992	0.48
256.364	0.43
256.737	0.41
257.11	0.42
257.483	0.36
257.855	0.29
258.228	0.2
258.6	0.19
258.973	0.29
259.345	0.36
259.718	0.32
260.09	0.34
260.462	0.2
260.834	0.24
261.207	0.21
261.579	0.15
261.951	0.16
262.323	0.2
262.695	0.25
263.067	0.29
263.439	0.3
263.811	0.33
264.183	0.34
264.555	0.38
264.927	0.34
265.298	0.31
265.67	0.31
266.042	0.38
266.413	0.38
266.785	0.38
267.156	0.42
267.528	0.44
267.899	0.43
268.271	0.36
268.642	0.32
269.013	0.32
269.385	0.27
269.756	0.24
270.127	0.19
270.498	0.22
270.87	0.25
271.241	0.27
271.612	0.25
271.983	0.23
272.354	0.21
272.724	0.16
273.095	0.13
273.466	0.12
273.837	0.1
274.208	0.1
274.578	0.11
274.949	0.08
275.32	0.05
275.69	0.05
276.061	0.09
276.431	0.17
276.802	0.14
277.172	0.16
277.542	0.14
277.913	0.16
278.283	0.16
278.653	0.22
279.023	0.33
279.394	0.37
279.764	0.4
280.134	0.36
280.504	0.4
280.874	0.4
281.244	0.39
281.614	0.34
281.983	0.36
282.353	0.33
282.723	0.37
283.093	0.37
283.462	0.36
283.832	0.33
284.202	0.39
284.571	0.35
284.941	0.32
285.31	0.31
285.68	0.27
286.049	0.27
286.418	0.29
286.788	0.37
287.157	0.34
287.526	0.34
287.895	0.29
288.264	0.23
288.633	0.25
289.002	0.24
289.371	0.25
289.74	0.19
290.109	0.19
290.478	0.21
290.847	0.22
291.216	0.2
291.585	0.21
291.953	0.22
292.322	0.24
292.691	0.26
293.059	0.25
293.428	0.2
293.796	0.21
294.165	0.21
294.533	0.18
294.901	0.11
295.27	0.12
295.638	0.05
296.006	-0.05
296.374	-0.07
296.743	-0.09
297.111	-0.12
297.479	-0.13
297.847	-0.2
298.215	-0.22
298.583	-0.26
298.95	-0.27
299.318	-0.27
299.686	-0.27
300.054	-0.25
300.422	-0.23
300.789	-0.24
301.157	-0.32
301.525	-0.33
301.892	-0.34
302.26	-0.31
302.627	-0.33
302.994	-0.33
303.362	-0.32
303.729	-0.28
304.097	-0.21
304.464	-0.17
304.831	-0.14
305.198	-0.12
305.565	-0.09
305.932	-0.14
306.299	-0.09
306.666	-0.03
307.033	-0.02
307.4	-0.01
307.767	0.04
308.134	0.02
308.501	0.02
308.867	0.06
309.234	0.08
309.601	0.12
309.967	0.11
310.334	0.18
310.701	0.18
311.067	0.16
311.433	0.21
311.8	0.23
312.166	0.2
312.533	0.16
312.899	0.11
313.265	0.11
313.631	0.05
313.997	0.07
314.363	0.06
314.729	0.03
315.096	0.05
315.461	0.02
315.827	-0.07
316.193	-0.03
316.559	-0.06
316.925	-0.03
317.291	0.02
317.656	0
318.022	-0.07
318.388	-0.09
318.753	-0.14
319.119	-0.12
319.484	-0.13
319.85	-0.13
320.215	-0.16
320.581	-0.21
320.946	-0.21
321.311	-0.15
321.676	-0.13
322.042	-0.1
322.407	-0.12
322.772	-0.05
323.137	-0.06
323.502	-0.01
323.867	0.03
324.232	-0.04
324.597	-0.03
324.962	0.02
325.327	-0.02
325.691	0.07
326.056	0.03
326.421	0.02
326.785	0.06
327.15	0.09
327.514	0.09
327.879	0.11
328.243	0.09
328.608	0.11
328.972	0.1
329.337	0.11
329.701	0.15
330.065	0.11
330.429	0.08
330.794	0.07
331.158	0.04
331.522	-0.03
331.886	-0.07
332.25	-0.12
332.614	-0.19
332.978	-0.3
333.342	-0.21
333.705	-0.23
334.069	-0.23
334.433	-0.23
334.797	-0.27
335.16	-0.27
335.524	-0.33
335.887	-0.41
336.251	-0.41
336.614	-0.43
336.978	-0.46
337.341	-0.45
337.705	-0.49
338.068	-0.4
338.431	-0.33
338.794	-0.35
339.158	-0.31
339.521	-0.32
339.884	-0.36
340.247	-0.4
340.61	-0.36
340.973	-0.37
341.336	-0.38
341.699	-0.36
342.062	-0.29
342.424	-0.27
342.787	-0.29
343.15	-0.36
343.512	-0.37
343.875	-0.39
344.238	-0.39
344.6	-0.38
344.963	-0.29
345.325	-0.33
345.688	-0.31
346.05	-0.3
346.412	-0.31
346.775	-0.26
347.137	-0.29
347.499	-0.36
347.861	-0.33
348.223	-0.39
348.585	-0.33
348.947	-0.26
349.309	-0.24
349.671	-0.24
350.033	-0.23
350.395	-0.24
350.757	-0.21
351.118	-0.21
351.48	-0.28
351.842	-0.22
352.203	-0.16
352.565	-0.17
352.927	-0.19
353.288	-0.19
353.65	-0.19
354.011	-0.21
354.372	-0.16
354.734	-0.17
355.095	-0.14
355.456	-0.23
355.817	-0.33
356.179	-0.38
356.54	-0.36
356.901	-0.43
357.262	-0.37
357.623	-0.44
357.984	-0.45
358.345	-0.44
358.705	-0.46
359.066	-0.45
359.427	-0.41
359.788	-0.44
360.148	-0.39
360.509	-0.34
360.87	-0.33
361.23	-0.31
361.591	-0.25
361.951	-0.26
362.312	-0.24
362.672	-0.17
363.032	-0.17
363.393	-0.19
363.753	-0.16
364.113	-0.21
364.473	-0.11
364.833	-0.05
365.193	-0.06
365.553	-0.03
365.913	-0.02
366.273	0
366.633	0.01
366.993	-0.01
367.353	0
367.713	0.05
368.072	0.07
368.432	0.11
368.792	0.09
369.151	0.04
369.511	0.01
369.87	-0.01
370.23	0.02
370.589	-0.08
370.949	-0.1
371.308	-0.06
371.667	-0.1
372.027	-0.09
372.386	-0.12
372.745	-0.17
373.104	-0.14
373.463	-0.14
373.822	-0.16
374.181	-0.16
374.54	-0.2
374.899	-0.19
375.258	-0.2
375.617	-0.21
375.975	-0.23
376.334	-0.24
376.693	-0.24
377.052	-0.25
377.41	-0.3
377.769	-0.27
378.127	-0.24
378.486	-0.19
378.844	-0.17
379.202	-0.21
379.561	-0.11
379.919	-0.1
380.277	-0.18
380.636	-0.16
380.994	-0.22
381.352	-0.26
381.71	-0.22
382.068	-0.19
382.426	-0.2
382.784	-0.18
383.142	-0.19
383.5	-0.2
383.857	-0.14
384.215	-0.22
384.573	-0.19
384.931	-0.17
385.288	-0.2
385.646	-0.23
386.003	-0.21
386.361	-0.16
386.718	-0.15
387.076	-0.14
387.433	-0.14
387.791	-0.15
388.148	-0.15
388.505	-0.21
388.862	-0.2
389.22	-0.12
389.577	-0.11
389.934	-0.05
390.291	0
390.648	0
391.005	0.01
391.362	0.07
391.718	0.13
392.075	0.14
392.432	0.16
392.789	0.16
393.145	0.19
393.502	0.24
393.859	0.27
394.215	0.29
394.572	0.34
394.928	0.3
395.285	0.3
395.641	0.29
395.997	0.32
396.354	0.28
396.71	0.33
397.066	0.33
397.422	0.41
397.778	0.4
398.134	0.31
398.491	0.26
398.846	0.32
399.202	0.28
399.558	0.33
399.914	0.33
400.27	0.34
400.626	0.34
400.981	0.32
401.337	0.42
401.693	0.41
402.048	0.47
402.404	0.46
402.759	0.5
403.115	0.61
403.47	0.74
403.826	0.77
404.181	0.74
404.536	0.74
404.892	0.77
405.247	0.82
405.602	0.77
405.957	0.81
406.312	0.79
406.667	0.85
407.022	0.89
407.377	0.97
407.732	0.88
408.087	1.01
408.442	1.02
408.796	1.02
409.151	1.01
409.506	1
409.86	1.06
410.215	1.05
410.57	1.06
410.924	1.03
411.279	1.04
411.633	1.04
411.987	0.92
412.342	0.84
412.696	0.89
413.05	0.92
413.404	0.99
413.758	1.1
414.113	1.08
414.467	1.14
414.821	1.15
415.175	1.21
415.529	1.22
415.882	1.34
416.236	1.37
416.59	1.44
416.944	1.4
417.298	1.39
417.651	1.35
418.005	1.39
418.358	1.48
418.712	1.54
419.065	1.49
419.419	1.49
419.772	1.58
420.126	1.58
420.479	1.66
420.832	1.76
421.185	1.76
421.539	1.73
421.892	1.77
422.245	1.73
422.598	1.66
422.951	1.68
423.304	1.68
423.657	1.66
424.01	1.58
424.363	1.59
424.715	1.59
425.068	1.59
425.421	1.67
425.773	1.63
426.126	1.73
426.479	1.76
426.831	1.76
427.184	1.76
427.536	1.78
427.889	1.79
428.241	1.87
428.593	1.79
428.945	1.81
429.298	1.76
429.65	1.69
430.002	1.62
430.354	1.6
430.706	1.56
431.058	1.62
431.41	1.54
431.762	1.5
432.114	1.45
432.466	1.45
432.817	1.48
433.169	1.51
433.521	1.48
433.872	1.45
434.224	1.41
434.576	1.42
434.927	1.27
435.279	1.27
435.63	1.16
435.981	1.06
436.333	1
436.684	1.06
437.035	1
437.387	1.07
437.738	0.97
438.089	0.93
438.44	0.98
438.791	0.96
439.142	1
439.493	0.95
439.844	0.79
440.195	0.88
440.545	0.96
440.896	1.07
441.247	1.05
441.598	1.02
441.948	0.97
442.299	0.9
442.649	0.81
443	0.76
443.35	0.76
443.701	0.71
444.051	0.7
444.401	0.74
444.752	0.69
445.102	0.68
445.452	0.57
445.802	0.55
446.152	0.56
446.502	0.72
446.852	0.68
447.202	0.61
447.552	0.65
447.902	0.6
448.252	0.7
448.602	1.19
448.952	1.13
449.301	1.11
449.651	1.14
450.001	1.16
450.35	1.24
450.7	1.25
451.049	1.19
451.399	1.27
451.748	1.29
452.097	1.3
452.447	1.38
452.796	1.31
453.145	1.49
453.494	1.59
453.843	1.6
454.193	1.67
454.542	1.77
454.891	1.75
455.239	1.66
455.588	1.68
455.937	1.8
456.286	1.91
456.635	1.9
456.984	1.89
457.332	1.45
457.681	1.5
458.03	1.57
458.378	1.57
458.727	1.63
459.075	1.63
459.423	1.75
459.772	1.84
460.12	1.81
460.468	1.88
460.817	2.01
461.165	2.06
461.513	2.16
461.861	2.19
462.209	2.24
462.557	2.27
462.905	2.23
463.253	2.12
463.601	2.2
463.949	2.21
464.297	2.24
464.644	2.18
464.992	2.12
465.34	2.17
465.687	2.21
466.035	2.28
466.383	2.21
466.73	2.07
467.078	2.09
467.425	2.08
467.772	2.06
468.12	1.92
468.467	1.97
468.814	2.11
469.161	2.08
469.508	2
469.856	1.92
470.203	1.91
470.55	1.69
470.897	1.64
471.243	1.59
471.59	1.6
471.937	1.6
472.284	1.56
472.631	1.5
472.977	1.5
473.324	1.58
473.671	1.52
474.017	1.49
474.364	1.38
474.71	1.29
475.057	1.3
475.403	1.23
475.749	1.18
476.096	1.16
476.442	1.21
476.788	1.17
477.134	1.16
477.48	1.04
477.826	1
478.172	0.97
478.518	1.02
478.864	1.09
479.21	1.14
479.556	1.1
479.902	1.14
480.248	1.2
480.593	1.2
480.939	1.19
481.285	1.29
481.63	1.32
481.976	1.26
482.321	1.26
482.667	1.3
483.012	1.39
483.357	1.46
483.703	1.53
484.048	1.67
484.393	1.74
484.738	1.83
485.084	1.88
485.429	2.06
485.774	2.18
486.119	2.34
486.464	2.53
486.808	2.69
487.153	2.87
487.498	3.03
487.843	3.24
488.188	3.51
488.532	3.79
488.877	4.06
489.222	4.38
489.566	4.71
489.911	4.97
490.255	5.32
490.6	5.72
490.944	6.14
491.288	6.53
491.633	6.89
491.977	7.31
492.321	7.79
492.665	8.2
493.009	8.64
493.353	9.09
493.697	9.53
494.041	10.02
494.385	10.54
494.729	11.01
495.073	11.49
495.417	12.02
495.76	12.59
496.104	13.12
496.448	13.61
496.791	14.06
497.135	14.53
497.479	15.1
497.822	15.64
498.165	16.12
498.509	16.72
498.852	17.18
499.196	17.72
499.539	18.27
499.882	18.83
500.225	19.35
500.568	19.82
500.911	20.29
501.254	20.89
501.597	21.35
501.94	21.79
502.283	22.23
502.626	22.7
502.969	23.05
503.312	23.49
503.654	23.84
503.997	24.25
504.34	24.69
504.682	25.12
505.025	25.54
505.367	25.95
505.71	26.39
506.052	26.67
506.395	26.99
506.737	27.38
507.079	27.66
507.421	28.06
507.764	28.37
508.106	28.64
508.448	28.96
508.79	29.26
509.132	29.59
509.474	29.81
509.816	29.95
510.158	30.22
510.499	30.54
510.841	30.82
511.183	31.04
511.525	31.29
511.866	31.5
512.208	31.7
512.549	31.83
512.891	31.82
513.232	31.88
513.574	32.1
513.915	32.27
514.256	32.33
514.598	32.42
514.939	32.57
515.28	32.6
515.621	32.7
515.962	32.83
516.303	32.98
516.644	33.06
516.985	33.1
517.326	33.18
517.667	33.31
518.008	33.45
518.349	33.5
518.69	33.61
519.03	33.67
519.371	33.66
519.712	33.72
520.052	33.77
520.393	33.93
520.733	34.01
521.074	34.14
521.414	34.35
521.754	34.49
522.095	34.58
522.435	34.69
522.775	34.84
523.115	34.88
523.455	34.84
523.795	35.02
524.135	35.07
524.475	35.22
524.815	35.27
525.155	35.42
525.495	35.51
525.835	35.58
526.175	35.52
526.514	35.58
526.854	35.72
527.194	35.73
527.533	35.68
527.873	35.73
528.212	35.86
528.552	35.89
528.891	35.92
529.23	36.04
529.57	36.09
529.909	36.11
530.248	36.05
530.587	36.02
530.927	35.98
531.266	35.91
531.605	36.02
531.944	36.16
532.283	36.06
532.621	36.07
532.96	36.03
533.299	36.05
533.638	36.06
533.977	36.06
534.315	36.21
534.654	36.22
534.992	36.26
535.331	36.12
535.67	36.17
536.008	36.24
536.346	36.29
536.685	36.26
537.023	36.28
537.361	36.25
537.7	36.13
538.038	36.11
538.376	36.19
538.714	36.31
539.052	36.23
539.39	36.27
539.728	36.26
540.066	36.22
540.404	36.24
540.741	36.22
541.079	36.24
541.417	36.13
541.755	36.17
542.092	36.06
542.43	36.04
542.767	35.84
543.105	35.84
543.442	35.83
543.78	35.87
544.117	35.8
544.454	35.82
544.792	35.8
545.129	35.83
545.466	35.84
545.803	35.89
546.14	35.84
546.477	35.82
546.814	35.82
547.151	35.75
547.488	35.87
547.825	35.88
548.162	35.91
548.499	35.94
548.835	36.01
549.172	36.08
549.509	36.16
549.845	36.11
550.182	36.07
550.518	36.05
550.855	36.13
551.191	36.19
551.528	36.19
551.864	36.02
552.2	36.17
552.537	36.17
552.873	36.27
553.209	36.26
553.545	36.13
553.881	36.16
554.217	36.11
554.553	36.28
554.889	36.32
555.225	36.29
555.561	36.4
555.896	36.47
556.232	36.53
556.568	36.6
556.903	36.56
557.239	36.56
557.575	36.59
557.91	36.7
558.245	36.95
558.581	36.99
558.916	37.15
559.252	37.06
559.587	37.12
559.922	37.24
560.257	37.45
560.592	37.33
560.928	37.36
561.263	37.26
561.598	37.43
561.933	37.56
562.267	37.68
562.602	37.7
562.937	37.72
563.272	37.82
563.607	37.87
563.941	37.95
564.276	37.94
564.611	38.13
564.945	38.21
565.28	38.48
565.614	38.57
565.949	38.58
566.283	38.58
566.617	38.54
566.951	38.58
567.286	38.68
567.62	38.85
567.954	38.85
568.288	38.86
568.622	38.81
568.956	38.86
569.29	38.95
569.624	38.88
569.958	38.98
570.292	38.91
570.626	38.81
570.959	38.85
571.293	38.96
571.627	39.01
571.96	38.94
572.294	38.89
572.627	38.82
572.961	38.7
573.294	38.68
573.627	38.6
573.961	38.55
574.294	38.73
574.627	38.79
574.961	38.95
575.294	38.99
575.627	38.93
575.96	38.96
576.293	39
576.626	39.03
576.959	39.06
577.292	39.05
577.624	39.04
577.957	39.22
578.29	39.2
578.623	39.37
578.955	39.47
579.288	39.51
579.62	39.46
579.953	39.38
580.285	39.5
580.618	39.59
580.95	39.76
581.282	39.86
581.615	40.02
581.947	40.12
582.279	40.12
582.611	40.01
582.943	39.94
583.275	39.86
583.607	39.98
583.939	40.11
584.271	40.08
584.603	40.1
584.935	40.05
585.267	40.08
585.598	40.16
585.93	40.19
586.262	40.24
586.593	40.27
586.925	40.17
587.256	40.23
587.588	40.25
587.919	40.31
588.25	40.5
588.582	40.52
588.913	40.53
589.244	40.54
589.575	40.57
589.907	40.56
590.238	40.61
590.569	40.88
590.9	41
591.231	41.14
591.562	41.2
591.892	41.16
592.223	41.28
592.554	41.54
592.885	41.59
593.215	41.66
593.546	41.65
593.877	41.76
594.207	41.84
594.538	41.8
594.868	41.82
595.198	41.87
595.529	41.92
595.859	42.04
596.189	42.19
596.52	42.18
596.85	42.33
597.18	42.42
597.51	42.42
597.84	42.45
598.17	42.43
598.5	42.55
598.83	42.56
599.16	42.65
599.489	42.75
599.819	42.83
600.149	42.92
600.479	42.9
600.808	42.8
601.138	42.82
601.467	42.88
601.797	43.03
602.126	43.14
602.456	43.34
602.785	43.42
603.114	43.44
603.443	43.72
603.773	43.87
604.102	43.96
604.431	44.02
604.76	44.11
605.089	44.06
605.418	44.18
605.747	44.29
606.076	44.46
606.405	44.51
606.733	44.54
607.062	44.62
607.391	44.75
607.72	44.88
608.048	44.99
608.377	45.01
608.705	45
609.034	45.14
609.362	45.35
609.69	45.71
610.019	45.91
610.347	45.96
610.675	45.81
611.004	45.8
611.332	45.86
611.66	45.75
611.988	45.62
612.316	45.59
612.644	45.48
612.972	45.68
613.3	45.83
613.627	45.78
613.955	45.72
614.283	45.68
614.611	45.95
614.938	45.89
615.266	45.79
615.593	45.7
615.921	45.61
616.248	45.84
616.576	45.94
616.903	46.3
617.23	46.37
617.558	46.47
617.885	46.4
618.212	46.52
618.539	46.5
618.866	46.62
619.193	46.92
619.52	47.08
619.847	47.18
620.174	47.51
620.501	47.52
620.828	47.79
621.155	47.72
621.481	47.72
621.808	47.75
622.135	48.07
622.461	48.41
622.788	48.16
623.114	48.45
623.441	48.52
623.767	48.8
624.093	48.89
624.42	48.82
624.746	48.91
625.072	48.87
625.398	49.02
625.725	49.17
626.051	49.22
626.377	49.34
626.703	49.3
627.029	49.43
627.354	49.17
627.68	49.23
628.006	49.48
628.332	49.09
628.658	49.02
628.983	49.02
629.309	48.86
629.634	48.83
629.96	48.78
630.285	48.59
630.611	48.3
630.936	48.42
631.262	48.22
631.587	48.1
631.912	48.28
632.237	48.11
632.562	47.97
632.887	48.19
633.213	48.28
633.538	47.84
633.863	47.91
634.187	47.8
634.512	47.33
634.837	47.59
635.162	47.61
635.487	48.09
635.811	48.37
636.136	48.58
636.461	48.98
636.785	49.27
637.11	49.63
637.434	49.69
637.758	49.94
638.083	50.52
638.407	50.86
638.731	50.85
639.056	51.39
639.38	51.41
639.704	52.61
640.028	52.71
640.352	53.72
640.676	54.22
641	54.24
641.324	54.16
641.648	54.76
641.972	54.9
642.295	55.17
642.619	55.33
642.943	55.22
643.266	54.86
643.59	54.32
643.913	54.26
644.237	53.68
644.56	53.44
644.884	53.44
645.207	53.43
645.53	53.62
645.854	53.69
646.177	53.08
646.5	52.92
646.823	52.74
647.146	52.5
647.469	51.86
647.792	51.25
648.115	50.77
648.438	50.68
648.761	51.95
649.084	52.71
649.406	53.06
649.729	52.3
650.052	51.87
650.374	51.51
650.697	51.58
651.019	51.49
651.342	51.56
651.664	51.75
651.987	51.49
652.309	51.79
652.631	51.8
652.953	51.77
653.276	51.72
653.598	51.66
653.92	51.69
654.242	51.92
654.564	51.96
654.886	52.02
655.208	52.05
655.53	52.37
655.851	52.31
656.173	52.54
656.495	52.36
656.816	51.87
657.138	51.18
657.46	50.51
657.781	51.37
658.103	52.16
658.424	53.51
658.746	53.71
659.067	54.66
659.388	54.69
