Data from T2__Reflection__86__00-56-37-744.txt Node

Date: Sat Jun 05 00:56:37 CEST 2021
User: mabdelazizm
Spectrometer: FLMS18565
Trigger mode: 0
Integration Time (sec): 2.000000E0
Scans to average: 1
Electric dark correction enabled: true
Nonlinearity correction enabled: false
Boxcar width: 12
XAxis mode: Wavelengths
Number of Pixels in Spectrum: 2048
>>>>>Begin Spectral Data<<<<<
179.071	103.62
179.452	83.53
179.833	59.23
180.214	108.86
180.595	153.7
180.977	326.47
181.358	129.65
181.739	190
182.12	126.33
182.501	162.59
182.882	161.84
183.262	307.89
183.643	-541.78
184.024	-98.01
184.405	-42.64
184.786	-52.51
185.166	-19.31
185.547	-19.92
185.927	-22.49
186.308	-27.06
186.689	-12.05
187.069	-0.69
187.449	8.83
187.83	6.54
188.21	-1.78
188.59	-4.5
188.971	-12.8
189.351	-18.02
189.731	-9.99
190.111	-21.53
190.491	-24.28
190.871	-26.97
191.251	-18.6
191.631	-9.65
192.011	-12.8
192.391	-13.87
192.771	-6.89
193.151	-11.51
193.531	-16.38
193.91	-11.58
194.29	-7.07
194.67	-11.6
195.049	-11.06
195.429	-10.39
195.808	-9.38
196.188	-12.72
196.567	-17.11
196.946	-16.71
197.326	-14.61
197.705	-13.99
198.084	-9.82
198.464	-7.98
198.843	-8.95
199.222	-11.28
199.601	-7.16
199.98	-7.24
200.359	-2.48
200.738	-1.86
201.117	-4.65
201.496	-1.72
201.875	-2.53
202.254	-6.67
202.632	-5.4
203.011	-1.59
203.39	-3.23
203.768	-0.31
204.147	3.18
204.525	2.72
204.904	1.43
205.282	1.29
205.661	2.07
206.039	2.48
206.418	2.17
206.796	3.64
207.174	3.09
207.552	1.72
207.931	0.12
208.309	0.69
208.687	0.4
209.065	0.24
209.443	-0.91
209.821	-1.95
210.199	-4.81
210.577	-3.92
210.954	-3.67
211.332	-5.06
211.71	-2.76
212.088	-1.67
212.465	-4
212.843	-1.88
213.221	-3.54
213.598	-3.45
213.976	-3.74
214.353	-3.66
214.731	-2.7
215.108	-3.33
215.485	-2.41
215.863	-4.98
216.24	-5.75
216.617	-4.64
216.994	-4.89
217.371	-3.96
217.749	-1.93
218.126	-0.65
218.503	-1.42
218.88	-1.91
219.256	-1.25
219.633	-0.59
220.01	-1.22
220.387	0.4
220.764	1.28
221.14	1.52
221.517	1.59
221.894	0.68
222.27	-0.3
222.647	-0.3
223.023	-0.53
223.4	0.34
223.776	0.25
224.153	-0.56
224.529	0.31
224.905	1.02
225.282	1.37
225.658	0.68
226.034	0.74
226.41	1.19
226.786	0.83
227.162	-0.06
227.538	0.24
227.914	0.6
228.29	0.95
228.666	0.22
229.042	0.49
229.418	0.6
229.793	0.44
230.169	0.52
230.545	0.2
230.92	0.33
231.296	0.49
231.672	0.6
232.047	0.51
232.422	0.59
232.798	0.41
233.173	0.54
233.549	0.77
233.924	0.71
234.299	0.51
234.674	0.6
235.05	0.81
235.425	0.81
235.8	0.73
236.175	0.86
236.55	0.86
236.925	0.85
237.3	0.78
237.675	0.82
238.049	1.11
238.424	1.16
238.799	1.19
239.174	1.12
239.548	1.1
239.923	1.04
240.297	0.9
240.672	1.02
241.046	0.98
241.421	0.94
241.795	0.93
242.17	0.92
242.544	0.91
242.918	0.84
243.293	0.78
243.667	0.81
244.041	0.81
244.415	0.78
244.789	0.73
245.163	0.73
245.537	0.66
245.911	0.73
246.285	0.63
246.659	0.63
247.033	0.67
247.406	0.56
247.78	0.51
248.154	0.52
248.528	0.5
248.901	0.55
249.275	0.64
249.648	0.64
250.022	0.53
250.395	0.54
250.769	0.56
251.142	0.62
251.515	0.65
251.888	0.63
252.262	0.65
252.635	0.65
253.008	0.61
253.381	0.62
253.754	0.63
254.127	0.66
254.5	0.65
254.873	0.65
255.246	0.66
255.619	0.68
255.992	0.74
256.364	0.71
256.737	0.75
257.11	0.8
257.483	0.82
257.855	0.81
258.228	0.8
258.6	0.78
258.973	0.87
259.345	0.98
259.718	0.96
260.09	0.98
260.462	0.88
260.834	0.94
261.207	0.94
261.579	0.92
261.951	0.92
262.323	0.93
262.695	0.98
263.067	0.97
263.439	1
263.811	1.02
264.183	1.05
264.555	1.01
264.927	1.03
265.298	0.99
265.67	0.98
266.042	1
266.413	0.95
266.785	0.9
267.156	0.89
267.528	0.9
267.899	0.86
268.271	0.84
268.642	0.8
269.013	0.79
269.385	0.74
269.756	0.71
270.127	0.68
270.498	0.67
270.87	0.71
271.241	0.76
271.612	0.77
271.983	0.7
272.354	0.69
272.724	0.67
273.095	0.68
273.466	0.63
273.837	0.65
274.208	0.68
274.578	0.66
274.949	0.68
275.32	0.63
275.69	0.63
276.061	0.7
276.431	0.75
276.802	0.7
277.172	0.71
277.542	0.69
277.913	0.71
278.283	0.71
278.653	0.75
279.023	0.79
279.394	0.81
279.764	0.81
280.134	0.77
280.504	0.8
280.874	0.8
281.244	0.84
281.614	0.8
281.983	0.79
282.353	0.8
282.723	0.82
283.093	0.81
283.462	0.77
283.832	0.73
284.202	0.7
284.571	0.69
284.941	0.67
285.31	0.66
285.68	0.62
286.049	0.61
286.418	0.64
286.788	0.68
287.157	0.62
287.526	0.64
287.895	0.6
288.264	0.62
288.633	0.58
289.002	0.6
289.371	0.62
289.74	0.57
290.109	0.54
290.478	0.5
290.847	0.52
291.216	0.54
291.585	0.52
291.953	0.5
292.322	0.49
292.691	0.5
293.059	0.51
293.428	0.51
293.796	0.5
294.165	0.5
294.533	0.45
294.901	0.44
295.27	0.43
295.638	0.39
296.006	0.32
296.374	0.32
296.743	0.31
297.111	0.3
297.479	0.31
297.847	0.29
298.215	0.26
298.583	0.26
298.95	0.26
299.318	0.3
299.686	0.39
300.054	0.38
300.422	0.37
300.789	0.37
301.157	0.36
301.525	0.38
301.892	0.33
302.26	0.37
302.627	0.33
302.994	0.35
303.362	0.34
303.729	0.37
304.097	0.36
304.464	0.42
304.831	0.42
305.198	0.43
305.565	0.43
305.932	0.4
306.299	0.39
306.666	0.42
307.033	0.43
307.4	0.45
307.767	0.41
308.134	0.35
308.501	0.29
308.867	0.28
309.234	0.31
309.601	0.3
309.967	0.25
310.334	0.27
310.701	0.24
311.067	0.27
311.433	0.27
311.8	0.3
312.166	0.3
312.533	0.29
312.899	0.25
313.265	0.26
313.631	0.2
313.997	0.19
314.363	0.18
314.729	0.14
315.096	0.12
315.461	0.16
315.827	0.09
316.193	0.1
316.559	0.12
316.925	0.19
317.291	0.26
317.656	0.26
318.022	0.22
318.388	0.14
318.753	0.1
319.119	0.12
319.484	0.14
319.85	0.15
320.215	0.13
320.581	0.1
320.946	0.12
321.311	0.07
321.676	0.1
322.042	0.09
322.407	0.1
322.772	0.15
323.137	0.12
323.502	0.17
323.867	0.23
324.232	0.2
324.597	0.19
324.962	0.25
325.327	0.24
325.691	0.26
326.056	0.22
326.421	0.18
326.785	0.16
327.15	0.12
327.514	0.15
327.879	0.19
328.243	0.16
328.608	0.14
328.972	0.09
329.337	0.1
329.701	0.16
330.065	0.11
330.429	0.09
330.794	0.06
331.158	0.08
331.522	-0.02
331.886	-0.07
332.25	-0.09
332.614	-0.15
332.978	-0.19
333.342	-0.14
333.705	-0.17
334.069	-0.24
334.433	-0.26
334.797	-0.25
335.16	-0.25
335.524	-0.26
335.887	-0.25
336.251	-0.23
336.614	-0.22
336.978	-0.28
337.341	-0.26
337.705	-0.33
338.068	-0.28
338.431	-0.26
338.794	-0.3
339.158	-0.27
339.521	-0.25
339.884	-0.23
340.247	-0.31
340.61	-0.26
340.973	-0.23
341.336	-0.22
341.699	-0.22
342.062	-0.2
342.424	-0.22
342.787	-0.2
343.15	-0.25
343.512	-0.24
343.875	-0.31
344.238	-0.31
344.6	-0.31
344.963	-0.33
345.325	-0.31
345.688	-0.31
346.05	-0.29
346.412	-0.27
346.775	-0.2
347.137	-0.17
347.499	-0.18
347.861	-0.15
348.223	-0.21
348.585	-0.22
348.947	-0.2
349.309	-0.18
349.671	-0.18
350.033	-0.22
350.395	-0.18
350.757	-0.14
351.118	-0.15
351.48	-0.18
351.842	-0.15
352.203	-0.07
352.565	-0.1
352.927	-0.11
353.288	-0.12
353.65	-0.11
354.011	-0.08
354.372	-0.07
354.734	-0.09
355.095	-0.08
355.456	-0.1
355.817	-0.18
356.179	-0.19
356.54	-0.21
356.901	-0.29
357.262	-0.21
357.623	-0.24
357.984	-0.25
358.345	-0.24
358.705	-0.24
359.066	-0.23
359.427	-0.25
359.788	-0.28
360.148	-0.23
360.509	-0.11
360.87	-0.15
361.23	-0.13
361.591	-0.09
361.951	-0.11
362.312	-0.08
362.672	-0.08
363.032	-0.09
363.393	-0.07
363.753	-0.04
364.113	-0.03
364.473	-0
364.833	0.03
365.193	0.01
365.553	0.01
365.913	-0
366.273	-0.04
366.633	0.04
366.993	0
367.353	0.04
367.713	0.07
368.072	0.09
368.432	0.14
368.792	0.15
369.151	0.09
369.511	-0.02
369.87	-0
370.23	-0.02
370.589	-0.09
370.949	-0.11
371.308	-0.13
371.667	-0.14
372.027	-0.12
372.386	-0.17
372.745	-0.15
373.104	-0.15
373.463	-0.16
373.822	-0.12
374.181	-0.15
374.54	-0.12
374.899	-0.08
375.258	-0.06
375.617	-0.13
375.975	-0.11
376.334	-0.08
376.693	-0.06
377.052	-0.11
377.41	-0.12
377.769	-0.17
378.127	-0.17
378.486	-0.12
378.844	-0.11
379.202	-0.15
379.561	-0.08
379.919	-0.05
380.277	-0.05
380.636	-0.05
380.994	-0.11
381.352	-0.12
381.71	-0.14
382.068	-0.1
382.426	-0.09
382.784	-0.06
383.142	-0.03
383.5	-0.04
383.857	-0.02
384.215	-0.1
384.573	-0.11
384.931	-0.14
385.288	-0.17
385.646	-0.26
386.003	-0.16
386.361	-0.18
386.718	-0.14
387.076	-0.11
387.433	-0.13
387.791	-0.08
388.148	-0.06
388.505	-0.13
388.862	-0.14
389.22	-0.12
389.577	-0.09
389.934	-0.05
390.291	-0.06
390.648	-0.06
391.005	-0.11
391.362	-0.07
391.718	-0.07
392.075	-0.06
392.432	-0.07
392.789	-0.06
393.145	-0.01
393.502	0.04
393.859	0.02
394.215	0.01
394.572	0.06
394.928	0
395.285	-0.08
395.641	-0.07
395.997	-0.03
396.354	-0.07
396.71	-0.05
397.066	-0.07
397.422	-0.03
397.778	-0.06
398.134	-0.06
398.491	-0.11
398.846	-0.1
399.202	-0.07
399.558	-0.09
399.914	-0.1
400.27	-0.08
400.626	-0.14
400.981	-0.13
401.337	-0.06
401.693	-0.12
402.048	-0.15
402.404	-0.16
402.759	-0.09
403.115	-0.08
403.47	-0.05
403.826	-0.01
404.181	0.05
404.536	0.06
404.892	0.03
405.247	0
405.602	-0.09
405.957	-0.07
406.312	-0.08
406.667	-0.01
407.022	-0.09
407.377	-0.05
407.732	-0.09
408.087	-0.07
408.442	-0.04
408.796	-0.08
409.151	-0.12
409.506	-0.15
409.86	-0.17
410.215	-0.21
410.57	-0.2
410.924	-0.16
411.279	-0.14
411.633	-0.1
411.987	-0.14
412.342	-0.07
412.696	-0.17
413.05	-0.15
413.404	-0.14
413.758	-0.03
414.113	-0.05
414.467	0.03
414.821	0.02
415.175	0.11
415.529	0.04
415.882	0.11
416.236	0.12
416.59	0.17
416.944	0.2
417.298	0.22
417.651	0.27
418.005	0.27
418.358	0.39
418.712	0.48
419.065	0.45
419.419	0.48
419.772	0.47
420.126	0.4
420.479	0.35
420.832	0.39
421.185	0.36
421.539	0.41
421.892	0.39
422.245	0.42
422.598	0.32
422.951	0.37
423.304	0.35
423.657	0.39
424.01	0.27
424.363	0.3
424.715	0.36
425.068	0.36
425.421	0.39
425.773	0.35
426.126	0.46
426.479	0.47
426.831	0.42
427.184	0.35
427.536	0.26
427.889	0.29
428.241	0.26
428.593	0.22
428.945	0.26
429.298	0.33
429.65	0.35
430.002	0.35
430.354	0.35
430.706	0.37
431.058	0.35
431.41	0.33
431.762	0.35
432.114	0.32
432.466	0.3
432.817	0.33
433.169	0.37
433.521	0.29
433.872	0.28
434.224	0.26
434.576	0.27
434.927	0.09
435.279	0.08
435.63	0.09
435.981	0.09
436.333	0.11
436.684	0.1
437.035	0.14
437.387	0.22
437.738	0.27
438.089	0.19
438.44	0.23
438.791	0.19
439.142	0.25
439.493	0.24
439.844	0.17
440.195	0.19
440.545	0.29
440.896	0.31
441.247	0.3
441.598	0.27
441.948	0.28
442.299	0.35
442.649	0.32
443	0.27
443.35	0.3
443.701	0.29
444.051	0.32
444.401	0.37
444.752	0.33
445.102	0.31
445.452	0.32
445.802	0.32
446.152	0.34
446.502	0.41
446.852	0.44
447.202	0.4
447.552	0.42
447.902	0.47
448.252	0.5
448.602	1.01
448.952	1.03
449.301	1
449.651	1.01
450.001	1.05
450.35	1.12
450.7	1.16
451.049	1.1
451.399	1.15
451.748	1.15
452.097	1.12
452.447	1.13
452.796	1.14
453.145	1.24
453.494	1.28
453.843	1.24
454.193	1.21
454.542	1.22
454.891	1.2
455.239	1.14
455.588	1.13
455.937	1.11
456.286	1.13
456.635	1.02
456.984	1.07
457.332	0.57
457.681	0.56
458.03	0.5
458.378	0.43
458.727	0.44
459.075	0.48
459.423	0.5
459.772	0.51
460.12	0.5
460.468	0.66
460.817	0.78
461.165	0.91
461.513	0.86
461.861	0.87
462.209	0.88
462.557	0.93
462.905	0.93
463.253	0.91
463.601	0.92
463.949	0.92
464.297	0.94
464.644	0.99
464.992	0.96
465.34	0.99
465.687	0.99
466.035	1.05
466.383	0.97
466.73	1.03
467.078	1.04
467.425	1.05
467.772	1.03
468.12	0.91
468.467	0.99
468.814	1.05
469.161	0.92
469.508	0.91
469.856	0.78
470.203	0.82
470.55	0.68
470.897	0.76
471.243	0.78
471.59	0.78
471.937	0.78
472.284	0.74
472.631	0.67
472.977	0.68
473.324	0.74
473.671	0.72
474.017	0.71
474.364	0.67
474.71	0.64
475.057	0.72
475.403	0.7
475.749	0.74
476.096	0.7
476.442	0.84
476.788	0.82
477.134	0.86
477.48	0.78
477.826	0.83
478.172	0.8
478.518	0.81
478.864	0.86
479.21	0.94
479.556	0.85
479.902	0.81
480.248	0.87
480.593	0.83
480.939	0.87
481.285	1.01
481.63	1
481.976	0.94
482.321	0.92
482.667	0.92
483.012	0.98
483.357	1.01
483.703	1.03
484.048	1.15
484.393	1.23
484.738	1.31
485.084	1.26
485.429	1.41
485.774	1.43
486.119	1.52
486.464	1.6
486.808	1.65
487.153	1.8
487.498	1.86
487.843	1.9
488.188	2.07
488.532	2.29
488.877	2.45
489.222	2.68
489.566	2.91
489.911	3.1
490.255	3.34
490.6	3.65
490.944	3.93
491.288	4.18
491.633	4.41
491.977	4.65
492.321	4.94
492.665	5.15
493.009	5.41
493.353	5.69
493.697	6.02
494.041	6.4
494.385	6.8
494.729	7.18
495.073	7.52
495.417	7.95
495.76	8.38
496.104	8.78
496.448	9.25
496.791	9.69
497.135	10.05
497.479	10.49
497.822	10.91
498.165	11.41
498.509	11.91
498.852	12.37
499.196	12.83
499.539	13.39
499.882	13.92
500.225	14.46
500.568	14.96
500.911	15.44
501.254	16.03
501.597	16.54
501.94	17.05
502.283	17.54
502.626	17.98
502.969	18.37
503.312	18.85
503.654	19.36
503.997	19.86
504.34	20.41
504.682	20.92
505.025	21.38
505.367	21.86
505.71	22.33
506.052	22.77
506.395	23.27
506.737	23.64
507.079	24.01
507.421	24.44
507.764	24.88
508.106	25.17
508.448	25.59
508.79	25.87
509.132	26.29
509.474	26.64
509.816	26.89
510.158	27.29
510.499	27.71
510.841	28.07
511.183	28.43
511.525	28.79
511.866	29.05
512.208	29.29
512.549	29.56
512.891	29.76
513.232	29.98
513.574	30.33
513.915	30.59
514.256	30.89
514.598	31.24
514.939	31.47
515.28	31.69
515.621	31.83
515.962	32.17
516.303	32.38
516.644	32.62
516.985	32.81
517.326	33.08
517.667	33.28
518.008	33.55
518.349	33.76
518.69	34.01
519.03	34.24
519.371	34.44
519.712	34.63
520.052	34.85
520.393	35.06
520.733	35.32
521.074	35.51
521.414	35.74
521.754	35.98
522.095	36.19
522.435	36.39
522.775	36.5
523.115	36.6
523.455	36.66
523.795	36.87
524.135	37.17
524.475	37.3
524.815	37.49
525.155	37.71
525.495	37.89
525.835	38.07
526.175	38.2
526.514	38.31
526.854	38.54
527.194	38.57
527.533	38.54
527.873	38.65
528.212	38.66
528.552	38.79
528.891	38.88
529.23	38.98
529.57	39.17
529.909	39.2
530.248	39.17
530.587	39.24
530.927	39.27
531.266	39.35
531.605	39.42
531.944	39.6
532.283	39.59
532.621	39.58
532.96	39.63
533.299	39.65
533.638	39.75
533.977	39.87
534.315	39.97
534.654	40.08
534.992	40.09
535.331	40
535.67	40.13
536.008	40.22
536.346	40.2
536.685	40.36
537.023	40.37
537.361	40.53
537.7	40.52
538.038	40.42
538.376	40.61
538.714	40.77
539.052	40.8
539.39	40.89
539.728	41.01
540.066	41.09
540.404	41.32
540.741	41.44
541.079	41.51
541.417	41.5
541.755	41.6
542.092	41.63
542.43	41.62
542.767	41.5
543.105	41.45
543.442	41.54
543.78	41.53
544.117	41.5
544.454	41.5
544.792	41.62
545.129	41.67
545.466	41.74
545.803	41.78
546.14	41.75
546.477	41.92
546.814	41.9
547.151	41.98
547.488	41.97
547.825	41.77
548.162	41.85
548.499	41.86
548.835	41.67
549.172	41.61
549.509	41.66
549.845	41.71
550.182	41.75
550.518	41.76
550.855	41.76
551.191	41.81
551.528	41.83
551.864	41.81
552.2	41.88
552.537	41.73
552.873	41.8
553.209	41.82
553.545	41.76
553.881	41.83
554.217	41.88
554.553	42.1
554.889	41.97
555.225	41.98
555.561	41.95
555.896	41.92
556.232	42.19
556.568	42.21
556.903	42.11
557.239	42.22
557.575	42.45
557.91	42.39
558.245	42.56
558.581	42.62
558.916	42.73
559.252	42.73
559.587	42.87
559.922	43.06
560.257	43.16
560.592	43.26
560.928	43.46
561.263	43.56
561.598	43.55
561.933	43.61
562.267	43.73
562.602	43.66
562.937	43.72
563.272	43.91
563.607	44.08
563.941	44.23
564.276	44.33
564.611	44.44
564.945	44.53
565.28	44.83
565.614	44.8
565.949	44.72
566.283	44.93
566.617	44.83
566.951	44.8
567.286	44.8
567.62	44.88
567.954	44.94
568.288	44.91
568.622	44.94
568.956	44.88
569.29	44.89
569.624	44.87
569.958	44.95
570.292	44.88
570.626	44.73
570.959	44.84
571.293	44.94
571.627	45.02
571.96	44.95
572.294	44.89
572.627	44.88
572.961	44.85
573.294	44.82
573.627	44.77
573.961	44.8
574.294	44.96
574.627	44.98
574.961	45.06
575.294	45.14
575.627	45.16
575.96	45.19
576.293	45.12
576.626	45.09
576.959	44.99
577.292	45.03
577.624	45.02
577.957	45.05
578.29	45.15
578.623	45.26
578.955	45.32
579.288	45.37
579.62	45.24
579.953	45.1
580.285	45.08
580.618	45.22
580.95	45.35
581.282	45.38
581.615	45.42
581.947	45.4
582.279	45.42
582.611	45.27
582.943	45.27
583.275	45.32
583.607	45.35
583.939	45.33
584.271	45.31
584.603	45.34
584.935	45.4
585.267	45.61
585.598	45.68
585.93	45.8
586.262	45.9
586.593	45.8
586.925	45.78
587.256	45.78
587.588	45.68
587.919	45.77
588.25	45.92
588.582	46.02
588.913	45.96
589.244	45.83
589.575	45.78
589.907	45.79
590.238	45.93
590.569	45.99
590.9	46.09
591.231	46.21
591.562	46.12
591.892	46.2
592.223	46.3
592.554	46.42
592.885	46.38
593.215	46.33
593.546	46.22
593.877	46.36
594.207	46.33
594.538	46.22
594.868	46.15
595.198	46.11
595.529	46.12
595.859	46.21
596.189	46.21
596.52	46.12
596.85	46.14
597.18	46
597.51	46.16
597.84	46.25
598.17	46.19
598.5	46.15
598.83	46.19
599.16	46.27
599.489	46.14
599.819	46.09
600.149	45.96
600.479	45.88
600.808	45.71
601.138	45.68
601.467	45.67
601.797	45.74
602.126	45.57
602.456	45.67
602.785	45.73
603.114	45.74
603.443	45.86
603.773	45.93
604.102	45.94
604.431	46.01
604.76	46.11
605.089	46.04
605.418	46.09
605.747	45.96
606.076	45.93
606.405	45.96
606.733	45.86
607.062	45.85
607.391	45.74
607.72	45.76
608.048	45.84
608.377	45.84
608.705	45.82
609.034	45.99
609.362	45.99
609.69	46.05
610.019	46
610.347	45.95
610.675	45.6
611.004	45.5
611.332	45.45
611.66	45.31
611.988	45.2
612.316	45.08
612.644	44.85
612.972	44.86
613.3	44.78
613.627	44.98
613.955	45.06
614.283	45.07
614.611	45.15
614.938	45.17
615.266	45.15
615.593	45.2
615.921	45.1
616.248	45.08
616.576	45
616.903	45.02
617.23	45.04
617.558	45.3
617.885	45.28
618.212	45.38
618.539	45.37
618.866	45.51
619.193	45.63
619.52	45.82
619.847	45.96
620.174	46.23
620.501	46.3
620.828	46.65
621.155	46.53
621.481	46.65
621.808	46.26
622.135	46.21
622.461	46.35
622.788	46.08
623.114	45.98
623.441	45.85
623.767	45.75
624.093	45.62
624.42	45.52
624.746	45.62
625.072	45.63
625.398	45.33
625.725	45.26
626.051	45.43
626.377	45.29
626.703	45.54
627.029	45.68
627.354	45.67
627.68	45.51
628.006	45.67
628.332	45.52
628.658	45.35
628.983	44.81
629.309	44.82
629.634	44.62
629.96	44.82
630.285	44.95
630.611	44.41
630.936	44.85
631.262	45
631.587	44.9
631.912	45.05
632.237	44.98
632.562	45.24
632.887	45.44
633.213	45.17
633.538	45.39
633.863	45.53
634.187	45.46
634.512	45.51
634.837	45.34
635.162	45.31
635.487	45.12
635.811	45.48
636.136	45.31
636.461	45.4
636.785	45.33
637.11	46.11
637.434	46.38
637.758	46.73
638.083	47.21
638.407	46.82
638.731	47.03
639.056	46.71
639.38	46.89
639.704	47.22
640.028	47.31
640.352	47.79
640.676	48.05
641	47.72
641.324	47.8
641.648	47.51
641.972	46.86
642.295	46.38
642.619	46.29
642.943	45.88
643.266	45.9
643.59	45.7
643.913	45.58
644.237	45.43
644.56	44.91
644.884	44.75
645.207	44.38
645.53	44.01
645.854	44.73
646.177	44.26
646.5	44.1
646.823	44.41
647.146	44.59
647.469	44.69
647.792	44.65
648.115	44.22
648.438	44.39
648.761	45.83
649.084	46.88
649.406	47.64
649.729	47.31
650.052	46.88
650.374	46.61
650.697	46.43
651.019	46.31
651.342	46.07
651.664	46.23
651.987	46.11
652.309	46.11
652.631	46.26
652.953	46.33
653.276	46.34
653.598	46.42
653.92	46.16
654.242	46.22
654.564	46.35
654.886	46.4
655.208	46.45
655.53	46.43
655.851	46.3
656.173	46.51
656.495	46.4
656.816	45.67
657.138	45.05
657.46	43.69
657.781	43.14
658.103	43.71
658.424	44.81
658.746	45.28
659.067	45.97
