Data from T2__Reflection__39__00-27-35-802.txt Node

Date: Sat Jun 05 00:27:35 CEST 2021
User: mabdelazizm
Spectrometer: FLMS18565
Trigger mode: 0
Integration Time (sec): 2.000000E0
Scans to average: 1
Electric dark correction enabled: true
Nonlinearity correction enabled: false
Boxcar width: 12
XAxis mode: Wavelengths
Number of Pixels in Spectrum: 2048
>>>>>Begin Spectral Data<<<<<
179.071	18.54
179.452	10.55
179.833	6.85
180.214	15.19
180.595	-93.52
180.977	-425
181.358	-186.5
181.739	-77.86
182.12	-32.24
182.501	-24.3
182.882	-86.43
183.262	-175
183.643	509.93
184.024	169.04
184.405	133.08
184.786	113.01
185.166	105.18
185.547	74.23
185.927	68.76
186.308	54.88
186.689	48.95
187.069	46.86
187.449	47.16
187.83	42.09
188.21	29.55
188.59	30.99
188.971	30.59
189.351	24.07
189.731	23.32
190.111	11.26
190.491	10.01
190.871	5.96
191.251	9.99
191.631	12.53
192.011	9.45
192.391	1.77
192.771	4.1
193.151	2.03
193.531	-0.86
193.91	-0.59
194.29	-0.66
194.67	-4.39
195.049	-5.67
195.429	-6.99
195.808	-9.57
196.188	-9.91
196.567	-11.26
196.946	-11.2
197.326	-11.67
197.705	-10.18
198.084	-8.11
198.464	-6.85
198.843	-2.61
199.222	-3.08
199.601	3.44
199.98	4.69
200.359	5.8
200.738	8.56
201.117	4.8
201.496	4.27
201.875	5.21
202.254	2.36
202.632	1.81
203.011	2.16
203.39	2.93
203.768	2.33
204.147	5.28
204.525	3.44
204.904	4.09
205.282	5.9
205.661	6.97
206.039	8.19
206.418	7.07
206.796	9.74
207.174	10.02
207.552	11.44
207.931	10.22
208.309	10.37
208.687	11.14
209.065	8.51
209.443	5.81
209.821	6.57
210.199	4
210.577	6.32
210.954	8.92
211.332	8.2
211.71	9.57
212.088	11.44
212.465	11.39
212.843	12.29
213.221	14.58
213.598	12.17
213.976	12.72
214.353	13.86
214.731	15.87
215.108	15.44
215.485	15.88
215.863	12.97
216.24	10.56
216.617	10.51
216.994	9.32
217.371	7.6
217.749	8
218.126	8.15
218.503	7.86
218.88	7.82
219.256	8.24
219.633	7.98
220.01	6.7
220.387	6.34
220.764	7.11
221.14	6.05
221.517	6.36
221.894	5.93
222.27	4.53
222.647	3.5
223.023	4
223.4	4.33
223.776	3.19
224.153	2.64
224.529	3.1
224.905	3.45
225.282	3.94
225.658	3.6
226.034	3.37
226.41	3.45
226.786	3.88
227.162	3.22
227.538	3.18
227.914	3.2
228.29	3.32
228.666	2.65
229.042	2.7
229.418	2.92
229.793	2.78
230.169	2.61
230.545	2.74
230.92	2.22
231.296	2.08
231.672	2.08
232.047	2.02
232.422	1.99
232.798	1.95
233.173	2.03
233.549	1.89
233.924	1.78
234.299	1.52
234.674	1.64
235.05	1.88
235.425	1.79
235.8	1.7
236.175	1.64
236.55	1.68
236.925	1.58
237.3	1.58
237.675	1.57
238.049	1.68
238.424	1.75
238.799	1.69
239.174	1.79
239.548	1.83
239.923	1.72
240.297	1.76
240.672	1.83
241.046	1.77
241.421	1.74
241.795	1.68
242.17	1.64
242.544	1.65
242.918	1.63
243.293	1.59
243.667	1.58
244.041	1.58
244.415	1.57
244.789	1.5
245.163	1.45
245.537	1.47
245.911	1.48
246.285	1.43
246.659	1.35
247.033	1.4
247.406	1.35
247.78	1.29
248.154	1.3
248.528	1.19
248.901	1.21
249.275	1.27
249.648	1.25
250.022	1.18
250.395	1.21
250.769	1.2
251.142	1.27
251.515	1.33
251.888	1.32
252.262	1.33
252.635	1.28
253.008	1.24
253.381	1.22
253.754	1.16
254.127	1.24
254.5	1.27
254.873	1.23
255.246	1.21
255.619	1.25
255.992	1.3
256.364	1.26
256.737	1.27
257.11	1.29
257.483	1.3
257.855	1.33
258.228	1.28
258.6	1.25
258.973	1.35
259.345	1.43
259.718	1.38
260.09	1.4
260.462	1.31
260.834	1.26
261.207	1.22
261.579	1.21
261.951	1.26
262.323	1.3
262.695	1.31
263.067	1.32
263.439	1.32
263.811	1.29
264.183	1.31
264.555	1.27
264.927	1.27
265.298	1.24
265.67	1.26
266.042	1.24
266.413	1.23
266.785	1.15
267.156	1.13
267.528	1.14
267.899	1.13
268.271	1.03
268.642	1.01
269.013	1.03
269.385	0.99
269.756	0.97
270.127	0.99
270.498	0.98
270.87	0.99
271.241	0.99
271.612	0.95
271.983	0.95
272.354	0.99
272.724	0.96
273.095	0.99
273.466	0.95
273.837	0.98
274.208	0.96
274.578	0.96
274.949	0.94
275.32	0.96
275.69	0.95
276.061	1.02
276.431	1.06
276.802	1.03
277.172	1
277.542	1.01
277.913	1
278.283	1.03
278.653	1.05
279.023	1.13
279.394	1.18
279.764	1.23
280.134	1.2
280.504	1.21
280.874	1.21
281.244	1.22
281.614	1.16
281.983	1.17
282.353	1.14
282.723	1.18
283.093	1.16
283.462	1.16
283.832	1.14
284.202	1.14
284.571	1.06
284.941	1.01
285.31	1.01
285.68	1.02
286.049	1.02
286.418	1.09
286.788	1.1
287.157	1.06
287.526	1.01
287.895	1.02
288.264	1.01
288.633	0.96
289.002	0.9
289.371	0.87
289.74	0.84
290.109	0.86
290.478	0.82
290.847	0.81
291.216	0.79
291.585	0.8
291.953	0.77
292.322	0.86
292.691	0.86
293.059	0.87
293.428	0.86
293.796	0.9
294.165	0.92
294.533	0.89
294.901	0.88
295.27	0.89
295.638	0.83
296.006	0.8
296.374	0.79
296.743	0.81
297.111	0.75
297.479	0.75
297.847	0.68
298.215	0.74
298.583	0.75
298.95	0.76
299.318	0.74
299.686	0.78
300.054	0.77
300.422	0.78
300.789	0.76
301.157	0.74
301.525	0.66
301.892	0.64
302.26	0.65
302.627	0.63
302.994	0.66
303.362	0.65
303.729	0.64
304.097	0.63
304.464	0.64
304.831	0.65
305.198	0.66
305.565	0.65
305.932	0.56
306.299	0.57
306.666	0.54
307.033	0.52
307.4	0.51
307.767	0.55
308.134	0.52
308.501	0.52
308.867	0.47
309.234	0.46
309.601	0.49
309.967	0.47
310.334	0.49
310.701	0.5
311.067	0.5
311.433	0.51
311.8	0.53
312.166	0.47
312.533	0.48
312.899	0.47
313.265	0.45
313.631	0.42
313.997	0.42
314.363	0.42
314.729	0.41
315.096	0.45
315.461	0.46
315.827	0.46
316.193	0.53
316.559	0.51
316.925	0.5
317.291	0.52
317.656	0.51
318.022	0.54
318.388	0.56
318.753	0.51
319.119	0.55
319.484	0.54
319.85	0.53
320.215	0.51
320.581	0.51
320.946	0.51
321.311	0.55
321.676	0.49
322.042	0.53
322.407	0.5
322.772	0.53
323.137	0.51
323.502	0.52
323.867	0.56
324.232	0.55
324.597	0.58
324.962	0.59
325.327	0.55
325.691	0.57
326.056	0.6
326.421	0.58
326.785	0.6
327.15	0.6
327.514	0.6
327.879	0.59
328.243	0.53
328.608	0.55
328.972	0.54
329.337	0.55
329.701	0.55
330.065	0.52
330.429	0.46
330.794	0.47
331.158	0.46
331.522	0.41
331.886	0.41
332.25	0.38
332.614	0.33
332.978	0.29
333.342	0.28
333.705	0.23
334.069	0.23
334.433	0.2
334.797	0.21
335.16	0.17
335.524	0.18
335.887	0.14
336.251	0.13
336.614	0.14
336.978	0.14
337.341	0.16
337.705	0.08
338.068	0.11
338.431	0.12
338.794	0.13
339.158	0.18
339.521	0.27
339.884	0.32
340.247	0.27
340.61	0.29
340.973	0.25
341.336	0.25
341.699	0.28
342.062	0.31
342.424	0.37
342.787	0.37
343.15	0.35
343.512	0.36
343.875	0.35
344.238	0.37
344.6	0.31
344.963	0.36
345.325	0.31
345.688	0.35
346.05	0.31
346.412	0.28
346.775	0.37
347.137	0.38
347.499	0.36
347.861	0.34
348.223	0.28
348.585	0.26
348.947	0.29
349.309	0.29
349.671	0.32
350.033	0.33
350.395	0.33
350.757	0.35
351.118	0.34
351.48	0.28
351.842	0.3
352.203	0.26
352.565	0.26
352.927	0.26
353.288	0.28
353.65	0.34
354.011	0.3
354.372	0.33
354.734	0.29
355.095	0.34
355.456	0.33
355.817	0.23
356.179	0.21
356.54	0.18
356.901	0.12
357.262	0.12
357.623	0.05
357.984	-0.03
358.345	-0.02
358.705	-0.04
359.066	-0.08
359.427	-0.07
359.788	-0.1
360.148	-0.1
360.509	-0.03
360.87	-0.03
361.23	0.03
361.591	0.11
361.951	0.12
362.312	0.1
362.672	0.13
363.032	0.14
363.393	0.14
363.753	0.17
364.113	0.12
364.473	0.12
364.833	0.15
365.193	0.08
365.553	0.14
365.913	0.16
366.273	0.22
366.633	0.29
366.993	0.31
367.353	0.34
367.713	0.42
368.072	0.51
368.432	0.51
368.792	0.53
369.151	0.52
369.511	0.47
369.87	0.47
370.23	0.46
370.589	0.38
370.949	0.33
371.308	0.34
371.667	0.31
372.027	0.33
372.386	0.31
372.745	0.25
373.104	0.31
373.463	0.36
373.822	0.35
374.181	0.44
374.54	0.43
374.899	0.46
375.258	0.44
375.617	0.36
375.975	0.35
376.334	0.33
376.693	0.28
377.052	0.24
377.41	0.23
377.769	0.19
378.127	0.17
378.486	0.19
378.844	0.22
379.202	0.14
379.561	0.16
379.919	0.14
380.277	0.11
380.636	0.12
380.994	0.04
381.352	0.05
381.71	0.07
382.068	0.12
382.426	0.12
382.784	0.24
383.142	0.26
383.5	0.22
383.857	0.23
384.215	0.18
384.573	0.26
384.931	0.23
385.288	0.24
385.646	0.21
386.003	0.24
386.361	0.28
386.718	0.3
387.076	0.34
387.433	0.33
387.791	0.31
388.148	0.37
388.505	0.32
388.862	0.33
389.22	0.38
389.577	0.35
389.934	0.38
390.291	0.35
390.648	0.34
391.005	0.3
391.362	0.34
391.718	0.3
392.075	0.31
392.432	0.28
392.789	0.27
393.145	0.31
393.502	0.25
393.859	0.22
394.215	0.2
394.572	0.22
394.928	0.16
395.285	0.1
395.641	0.13
395.997	0.14
396.354	0.13
396.71	0.14
397.066	0.14
397.422	0.24
397.778	0.26
398.134	0.19
398.491	0.19
398.846	0.2
399.202	0.21
399.558	0.28
399.914	0.26
400.27	0.23
400.626	0.19
400.981	0.16
401.337	0.21
401.693	0.18
402.048	0.22
402.404	0.23
402.759	0.32
403.115	0.4
403.47	0.48
403.826	0.48
404.181	0.48
404.536	0.44
404.892	0.42
405.247	0.35
405.602	0.32
405.957	0.3
406.312	0.26
406.667	0.27
407.022	0.25
407.377	0.26
407.732	0.26
408.087	0.33
408.442	0.32
408.796	0.31
409.151	0.31
409.506	0.28
409.86	0.29
410.215	0.36
410.57	0.4
410.924	0.4
411.279	0.38
411.633	0.38
411.987	0.32
412.342	0.27
412.696	0.31
413.05	0.35
413.404	0.4
413.758	0.54
414.113	0.58
414.467	0.6
414.821	0.7
415.175	0.69
415.529	0.68
415.882	0.72
416.236	0.81
416.59	0.81
416.944	0.76
417.298	0.72
417.651	0.72
418.005	0.72
418.358	0.83
418.712	0.83
419.065	0.77
419.419	0.76
419.772	0.72
420.126	0.74
420.479	0.75
420.832	0.76
421.185	0.79
421.539	0.79
421.892	0.83
422.245	0.8
422.598	0.7
422.951	0.7
423.304	0.73
423.657	0.71
424.01	0.71
424.363	0.72
424.715	0.79
425.068	0.75
425.421	0.81
425.773	0.81
426.126	0.87
426.479	0.9
426.831	0.85
427.184	0.76
427.536	0.77
427.889	0.78
428.241	0.8
428.593	0.83
428.945	0.87
429.298	0.84
429.65	0.89
430.002	0.83
430.354	0.82
430.706	0.8
431.058	0.81
431.41	0.75
431.762	0.74
432.114	0.72
432.466	0.67
432.817	0.74
433.169	0.76
433.521	0.71
433.872	0.64
434.224	0.62
434.576	0.68
434.927	0.68
435.279	0.65
435.63	0.65
435.981	0.67
436.333	0.69
436.684	0.63
437.035	0.61
437.387	0.63
437.738	0.58
438.089	0.52
438.44	0.47
438.791	0.52
439.142	0.52
439.493	0.45
439.844	0.4
440.195	0.49
440.545	0.61
440.896	0.65
441.247	0.63
441.598	0.52
441.948	0.59
442.299	0.6
442.649	0.61
443	0.59
443.35	0.59
443.701	0.46
444.051	0.51
444.401	0.51
444.752	0.48
445.102	0.5
445.452	0.47
445.802	0.53
446.152	0.58
446.502	0.62
446.852	0.63
447.202	0.67
447.552	0.6
447.902	0.6
448.252	0.71
448.602	1.11
448.952	0.98
449.301	1
449.651	1.06
450.001	1.09
450.35	1.11
450.7	1.05
451.049	1.01
451.399	1.09
451.748	1.1
452.097	1.1
452.447	1.13
452.796	1.1
453.145	1.26
453.494	1.29
453.843	1.26
454.193	1.3
454.542	1.23
454.891	1.23
455.239	1.29
455.588	1.26
455.937	1.23
456.286	1.33
456.635	1.3
456.984	1.31
457.332	0.98
457.681	1.15
458.03	1.1
458.378	1.02
458.727	1.06
459.075	1.13
459.423	1.16
459.772	1.12
460.12	0.99
460.468	1.07
460.817	1.06
461.165	1.1
461.513	1.08
461.861	1.07
462.209	1.12
462.557	1.11
462.905	1.06
463.253	1.13
463.601	1.09
463.949	1.08
464.297	1.23
464.644	1.23
464.992	1.21
465.34	1.24
465.687	1.21
466.035	1.23
466.383	1.14
466.73	1.05
467.078	1.15
467.425	1.09
467.772	1.03
468.12	0.94
468.467	1.03
468.814	1.12
469.161	1.1
469.508	1.05
469.856	1.07
470.203	1.15
470.55	1
470.897	1.04
471.243	1.04
471.59	1.11
471.937	1.02
472.284	1.04
472.631	0.97
472.977	0.92
473.324	0.94
473.671	0.9
474.017	0.9
474.364	0.86
474.71	0.82
475.057	0.83
475.403	0.83
475.749	0.73
476.096	0.78
476.442	0.88
476.788	0.87
477.134	0.91
477.48	0.89
477.826	0.82
478.172	0.87
478.518	0.85
478.864	0.88
479.21	0.93
479.556	0.89
479.902	0.92
480.248	0.94
480.593	1.01
480.939	0.96
481.285	1.04
481.63	1
481.976	0.94
482.321	0.93
482.667	0.94
483.012	0.97
483.357	0.94
483.703	0.99
484.048	1.04
484.393	1.12
484.738	1.17
485.084	1.21
485.429	1.33
485.774	1.35
486.119	1.46
486.464	1.58
486.808	1.6
487.153	1.69
487.498	1.74
487.843	1.83
488.188	1.95
488.532	2.07
488.877	2.24
489.222	2.44
489.566	2.66
489.911	2.82
490.255	3.06
490.6	3.33
490.944	3.59
491.288	3.79
491.633	4.02
491.977	4.34
492.321	4.61
492.665	4.87
493.009	5.13
493.353	5.39
493.697	5.67
494.041	6
494.385	6.37
494.729	6.71
495.073	7.05
495.417	7.5
495.76	7.93
496.104	8.37
496.448	8.78
496.791	9.22
497.135	9.62
497.479	10.07
497.822	10.41
498.165	10.86
498.509	11.37
498.852	11.88
499.196	12.44
499.539	12.98
499.882	13.54
500.225	14.1
500.568	14.62
500.911	15.14
501.254	15.73
501.597	16.29
501.94	16.83
502.283	17.36
502.626	17.91
502.969	18.36
503.312	18.83
503.654	19.34
503.997	19.8
504.34	20.36
504.682	20.86
505.025	21.44
505.367	22.01
505.71	22.57
506.052	23
506.395	23.58
506.737	24.08
507.079	24.47
507.421	24.94
507.764	25.44
508.106	25.91
508.448	26.34
508.79	26.76
509.132	27.22
509.474	27.67
509.816	28.05
510.158	28.44
510.499	28.93
510.841	29.24
511.183	29.63
511.525	30.06
511.866	30.48
512.208	30.83
512.549	31.2
512.891	31.46
513.232	31.72
513.574	32
513.915	32.28
514.256	32.55
514.598	32.97
514.939	33.3
515.28	33.58
515.621	34.03
515.962	34.4
516.303	34.82
516.644	35.17
516.985	35.52
517.326	35.79
517.667	36.04
518.008	36.29
518.349	36.55
518.69	36.85
519.03	37.07
519.371	37.45
519.712	37.59
520.052	37.78
520.393	38.13
520.733	38.36
521.074	38.62
521.414	39.02
521.754	39.46
522.095	39.85
522.435	40.15
522.775	40.43
523.115	40.62
523.455	40.79
523.795	41
524.135	41.17
524.475	41.46
524.815	41.44
525.155	41.51
525.495	41.79
525.835	42.07
526.175	42.19
526.514	42.43
526.854	42.65
527.194	42.82
527.533	42.99
527.873	43.14
528.212	43.52
528.552	43.79
528.891	43.83
529.23	44.09
529.57	44.29
529.909	44.3
530.248	44.28
530.587	44.45
530.927	44.51
531.266	44.64
531.605	44.79
531.944	44.98
532.283	45.14
532.621	45.25
532.96	45.38
533.299	45.47
533.638	45.7
533.977	45.55
534.315	45.57
534.654	45.68
534.992	45.85
535.331	45.74
535.67	45.85
536.008	45.86
536.346	45.91
536.685	45.81
537.023	45.81
537.361	45.99
537.7	46.07
538.038	46.11
538.376	46.2
538.714	46.34
539.052	46.16
539.39	46.3
539.728	46.36
540.066	46.47
540.404	46.53
540.741	46.62
541.079	46.58
541.417	46.53
541.755	46.83
542.092	46.83
542.43	47.01
542.767	47.09
543.105	47.23
543.442	47.29
543.78	47.45
544.117	47.37
544.454	47.47
544.792	47.49
545.129	47.63
545.466	47.67
545.803	47.67
546.14	47.66
546.477	47.75
546.814	47.89
547.151	47.82
547.488	47.85
547.825	47.81
548.162	47.8
548.499	47.72
548.835	47.69
549.172	47.71
549.509	47.76
549.845	47.69
550.182	47.57
550.518	47.64
550.855	47.69
551.191	47.73
551.528	47.57
551.864	47.42
552.2	47.57
552.537	47.61
552.873	47.7
553.209	47.85
553.545	47.77
553.881	47.84
554.217	47.91
554.553	48.12
554.889	48.12
555.225	48.23
555.561	48.38
555.896	48.54
556.232	48.58
556.568	48.69
556.903	48.63
557.239	48.69
557.575	48.66
557.91	48.84
558.245	49.03
558.581	48.98
558.916	49.03
559.252	49.06
559.587	49.16
559.922	49.37
560.257	49.49
560.592	49.47
560.928	49.67
561.263	49.7
561.598	49.75
561.933	49.95
562.267	50.19
562.602	50.16
562.937	50.07
563.272	50.15
563.607	50.13
563.941	50.29
564.276	50.36
564.611	50.51
564.945	50.52
565.28	50.85
565.614	51.02
565.949	51.02
566.283	51.15
566.617	51.13
566.951	51.29
567.286	51.26
567.62	51.21
567.954	51.36
568.288	51.28
568.622	51.2
568.956	51.21
569.29	51.18
569.624	51.17
569.958	51.31
570.292	51.33
570.626	51.15
570.959	51.15
571.293	51.32
571.627	51.38
571.96	51.38
572.294	51.32
572.627	51.31
572.961	51.24
573.294	51.2
573.627	51.17
573.961	51.16
574.294	51.33
574.627	51.25
574.961	51.34
575.294	51.39
575.627	51.35
575.96	51.53
576.293	51.38
576.626	51.48
576.959	51.55
577.292	51.58
577.624	51.57
577.957	51.65
578.29	51.64
578.623	51.64
578.955	51.63
579.288	51.67
579.62	51.52
579.953	51.44
580.285	51.47
580.618	51.53
580.95	51.59
581.282	51.69
581.615	51.78
581.947	51.74
582.279	51.81
582.611	51.78
582.943	51.9
583.275	51.85
583.607	51.89
583.939	51.94
584.271	51.9
584.603	52.03
584.935	51.91
585.267	51.98
585.598	52.11
585.93	52.24
586.262	52.2
586.593	52.22
586.925	52.24
587.256	52.35
587.588	52.38
587.919	52.35
588.25	52.48
588.582	52.51
588.913	52.5
589.244	52.5
589.575	52.48
589.907	52.56
590.238	52.65
590.569	52.7
590.9	52.76
591.231	52.74
591.562	52.68
591.892	52.6
592.223	52.71
592.554	52.86
592.885	52.75
593.215	52.8
593.546	52.71
593.877	52.57
594.207	52.47
594.538	52.44
594.868	52.34
595.198	52.3
595.529	52.28
595.859	52.27
596.189	52.39
596.52	52.45
596.85	52.49
597.18	52.46
597.51	52.55
597.84	52.41
598.17	52.4
598.5	52.41
598.83	52.37
599.16	52.27
599.489	52.24
599.819	52.31
600.149	52.26
600.479	52.19
600.808	51.94
601.138	51.93
601.467	52.02
601.797	52.07
602.126	52.08
602.456	52.18
602.785	52.12
603.114	52.1
603.443	52.03
603.773	51.99
604.102	52.09
604.431	52.1
604.76	52.08
605.089	51.99
605.418	51.99
605.747	51.88
606.076	52.06
606.405	52.15
606.733	52.1
607.062	51.99
607.391	52
607.72	52.04
608.048	52.13
608.377	52.07
608.705	52.02
609.034	51.93
609.362	51.93
609.69	52
610.019	52.02
610.347	52.06
610.675	51.98
611.004	51.96
611.332	51.95
611.66	52.07
611.988	52.13
612.316	52
612.644	51.87
612.972	51.69
613.3	51.65
613.627	51.7
613.955	51.63
614.283	51.59
614.611	51.46
614.938	51.37
615.266	51.37
615.593	51.38
615.921	51.37
616.248	51.21
616.576	51.24
616.903	51.55
617.23	51.71
617.558	51.79
617.885	51.69
618.212	51.55
618.539	51.36
618.866	51.3
619.193	51.62
619.52	51.64
619.847	51.62
620.174	51.76
620.501	51.91
620.828	52.19
621.155	52.35
621.481	52.28
621.808	52.15
622.135	52.51
622.461	52.63
622.788	52.43
623.114	52.53
623.441	52.51
623.767	52.54
624.093	52.42
624.42	52.48
624.746	52.88
625.072	52.58
625.398	52.52
625.725	52.58
626.051	52.76
626.377	52.91
626.703	52.97
627.029	53.02
627.354	52.9
627.68	52.71
628.006	52.7
628.332	52.91
628.658	52.87
628.983	52.49
629.309	52.25
629.634	52.51
629.96	52.71
630.285	52.15
630.611	51.94
630.936	51.98
631.262	51.85
631.587	51.57
631.912	51.31
632.237	51
632.562	51.22
632.887	51.03
633.213	51.12
633.538	51.11
633.863	51.06
634.187	50.83
634.512	50.91
634.837	51.09
635.162	51.18
635.487	50.97
635.811	51.13
636.136	51.15
636.461	50.53
636.785	50.38
637.11	50.94
637.434	51.48
637.758	51.44
638.083	51.61
638.407	51.82
638.731	51.77
639.056	52.4
639.38	52.66
639.704	53.45
640.028	54.16
640.352	54.63
640.676	54.9
641	54.62
641.324	54.61
641.648	54.73
641.972	54.65
642.295	54.47
642.619	54.64
642.943	54.27
643.266	53.81
643.59	53.65
643.913	54.41
644.237	54.33
644.56	54.03
644.884	53.72
645.207	53.87
645.53	53.53
645.854	53.54
646.177	53.03
646.5	52.85
646.823	52.87
647.146	52.42
647.469	52.16
647.792	52.05
648.115	51.87
648.438	51.95
648.761	52.52
649.084	53.2
649.406	53.37
649.729	52.77
650.052	52.58
650.374	52.25
650.697	52.06
651.019	52.12
651.342	52.24
651.664	52.29
651.987	52.02
652.309	52.06
652.631	52.18
652.953	52.28
653.276	52.14
653.598	52.07
653.92	52.18
654.242	52.51
654.564	52.68
654.886	52.58
655.208	52.79
655.53	52.93
655.851	52.7
656.173	52.72
656.495	52.63
656.816	52.16
657.138	51.56
657.46	50.9
657.781	51.12
658.103	51.66
658.424	52.42
658.746	52.34
659.067	52.58
659.388	52.45
659.709	52.76
660.031	52.93
660.352	52.57
660.673	53.06
660.994	53.28
661.315	53.06
661.636	53.27
661.957	53.14
662.278	52.27
662.599	52.4
662.919	52.6
663.24	51.83
663.561	50.96
663.881	51.54
664.202	51.1
