Data from T2__Reflection__27__23-36-11-933.txt Node

Date: Tue Jun 01 23:36:11 CEST 2021
User: mabdelazizm
Spectrometer: FLMS18565
Trigger mode: 0
Integration Time (sec): 2.000000E0
Scans to average: 1
Electric dark correction enabled: true
Nonlinearity correction enabled: false
Boxcar width: 12
XAxis mode: Wavelengths
Number of Pixels in Spectrum: 2048
>>>>>Begin Spectral Data<<<<<
179.071	87.82
179.452	86.16
179.833	73.58
180.214	56.74
180.595	51.8
180.977	57.68
181.358	50.83
181.739	57.65
182.12	50.15
182.501	50.09
182.882	64.77
183.262	57.2
183.643	127.65
184.024	-140.65
184.405	-50.92
184.786	-16.95
185.166	6.96
185.547	2.51
185.927	18.73
186.308	18.88
186.689	22.74
187.069	23.04
187.449	21.53
187.83	17.09
188.21	18.04
188.59	20.82
188.971	18.19
189.351	18.64
189.731	16.48
190.111	13.29
190.491	14.24
190.871	12.82
191.251	11.77
191.631	10.78
192.011	10.01
192.391	10.9
192.771	9.48
193.151	8.58
193.531	9.43
193.91	11.89
194.29	13.05
194.67	11.91
195.049	13.3
195.429	10.76
195.808	10.48
196.188	9.8
196.567	10.39
196.946	10.49
197.326	9.84
197.705	10.42
198.084	10.79
198.464	10.25
198.843	10.75
199.222	10.14
199.601	10.99
199.98	9.8
200.359	9.79
200.738	9.86
201.117	10.09
201.496	10.16
201.875	10.3
202.254	10.24
202.632	9.86
203.011	9.57
203.39	7.42
203.768	6.43
204.147	6.97
204.525	6.52
204.904	6.92
205.282	7.21
205.661	7.64
206.039	7.45
206.418	7.33
206.796	8.08
207.174	6.96
207.552	6.37
207.931	6.17
208.309	4.94
208.687	5.01
209.065	4.91
209.443	5.43
209.821	4.63
210.199	4.75
210.577	3.94
210.954	3.95
211.332	4.13
211.71	4.7
212.088	4.67
212.465	4.58
212.843	5.57
213.221	5.53
213.598	5.51
213.976	5.52
214.353	5.28
214.731	4.79
215.108	4.34
215.485	3.9
215.863	3.22
216.24	3.26
216.617	3.19
216.994	3.05
217.371	3.06
217.749	3.08
218.126	3.25
218.503	3.24
218.88	2.93
219.256	3.07
219.633	3.14
220.01	3.37
220.387	2.95
220.764	2.61
221.14	1.93
221.517	1.55
221.894	1.45
222.27	1.12
222.647	1.33
223.023	1.22
223.4	1.33
223.776	1.42
224.153	1.38
224.529	1.39
224.905	1.86
225.282	2.03
225.658	1.73
226.034	1.85
226.41	1.55
226.786	1.75
227.162	1.8
227.538	1.52
227.914	1.6
228.29	1.52
228.666	1.59
229.042	1.66
229.418	1.66
229.793	1.77
230.169	1.55
230.545	1.58
230.92	1.73
231.296	1.79
231.672	1.92
232.047	1.66
232.422	1.58
232.798	1.43
233.173	1.32
233.549	1.53
233.924	1.57
234.299	1.47
234.674	1.47
235.05	1.57
235.425	1.58
235.8	1.67
236.175	1.56
236.55	1.53
236.925	1.48
237.3	1.43
237.675	1.44
238.049	1.45
238.424	1.48
238.799	1.43
239.174	1.48
239.548	1.61
239.923	1.73
240.297	1.68
240.672	1.6
241.046	1.45
241.421	1.52
241.795	1.48
242.17	1.43
242.544	1.48
242.918	1.4
243.293	1.44
243.667	1.39
244.041	1.39
244.415	1.38
244.789	1.32
245.163	1.29
245.537	1.4
245.911	1.33
246.285	1.35
246.659	1.26
247.033	1.2
247.406	1.22
247.78	1.19
248.154	1.14
248.528	1.13
248.901	1.08
249.275	1.03
249.648	1.07
250.022	1.08
250.395	1.05
250.769	1.04
251.142	1.07
251.515	1.07
251.888	1.02
252.262	1
252.635	0.88
253.008	0.88
253.381	0.92
253.754	0.85
254.127	0.83
254.5	0.82
254.873	0.71
255.246	0.76
255.619	0.7
255.992	0.76
256.364	0.79
256.737	0.69
257.11	0.67
257.483	0.71
257.855	0.64
258.228	0.64
258.6	0.64
258.973	0.68
259.345	0.69
259.718	0.64
260.09	0.66
260.462	0.7
260.834	0.73
261.207	0.73
261.579	0.73
261.951	0.79
262.323	0.79
262.695	0.74
263.067	0.84
263.439	0.89
263.811	0.91
264.183	0.94
264.555	0.91
264.927	1.06
265.298	1.08
265.67	1.08
266.042	1.13
266.413	1.12
266.785	1.12
267.156	1.13
267.528	1.12
267.899	1.03
268.271	0.94
268.642	0.93
269.013	0.96
269.385	0.95
269.756	0.89
270.127	0.9
270.498	0.91
270.87	0.91
271.241	0.88
271.612	0.89
271.983	0.87
272.354	0.86
272.724	0.81
273.095	0.78
273.466	0.78
273.837	0.71
274.208	0.63
274.578	0.58
274.949	0.61
275.32	0.54
275.69	0.52
276.061	0.56
276.431	0.59
276.802	0.64
277.172	0.64
277.542	0.69
277.913	0.71
278.283	0.74
278.653	0.75
279.023	0.76
279.394	0.75
279.764	0.71
280.134	0.68
280.504	0.67
280.874	0.63
281.244	0.63
281.614	0.52
281.983	0.56
282.353	0.64
282.723	0.65
283.093	0.74
283.462	0.75
283.832	0.82
284.202	0.78
284.571	0.85
284.941	0.87
285.31	0.82
285.68	0.78
286.049	0.7
286.418	0.72
286.788	0.69
287.157	0.74
287.526	0.72
287.895	0.69
288.264	0.7
288.633	0.71
289.002	0.7
289.371	0.68
289.74	0.71
290.109	0.71
290.478	0.72
290.847	0.75
291.216	0.72
291.585	0.63
291.953	0.61
292.322	0.54
292.691	0.53
293.059	0.49
293.428	0.48
293.796	0.43
294.165	0.44
294.533	0.37
294.901	0.4
295.27	0.43
295.638	0.43
296.006	0.37
296.374	0.27
296.743	0.24
297.111	0.23
297.479	0.2
297.847	0.15
298.215	0.24
298.583	0.25
298.95	0.25
299.318	0.2
299.686	0.18
300.054	0.23
300.422	0.26
300.789	0.28
301.157	0.33
301.525	0.3
301.892	0.33
302.26	0.33
302.627	0.36
302.994	0.33
303.362	0.29
303.729	0.32
304.097	0.25
304.464	0.23
304.831	0.26
305.198	0.18
305.565	0.23
305.932	0.28
306.299	0.22
306.666	0.25
307.033	0.25
307.4	0.27
307.767	0.25
308.134	0.17
308.501	0.21
308.867	0.16
309.234	0.13
309.601	0.08
309.967	0.05
310.334	0.02
310.701	0.06
311.067	-0.01
311.433	0
311.8	-0.01
312.166	0.04
312.533	0.04
312.899	0.11
313.265	0.21
313.631	0.17
313.997	0.13
314.363	0.26
314.729	0.22
315.096	0.16
315.461	0.24
315.827	0.24
316.193	0.21
316.559	0.12
316.925	0.2
317.291	0.28
317.656	0.23
318.022	0.29
318.388	0.32
318.753	0.31
319.119	0.39
319.484	0.39
319.85	0.35
320.215	0.34
320.581	0.33
320.946	0.29
321.311	0.23
321.676	0.21
322.042	0.11
322.407	0.05
322.772	0.11
323.137	0.12
323.502	0.1
323.867	0.1
324.232	0.16
324.597	0.15
324.962	0.09
325.327	0.17
325.691	0.23
326.056	0.19
326.421	0.13
326.785	0.1
327.15	0.1
327.514	0.05
327.879	0.08
328.243	-0.01
328.608	-0.06
328.972	-0.09
329.337	-0.09
329.701	-0.14
330.065	-0.18
330.429	-0.15
330.794	-0.07
331.158	-0.02
331.522	-0.04
331.886	-0.01
332.25	-0.01
332.614	-0.01
332.978	-0.02
333.342	0.01
333.705	0.05
334.069	0.1
334.433	0.01
334.797	-0.05
335.16	-0.11
335.524	-0.08
335.887	-0.1
336.251	-0.14
336.614	-0.05
336.978	-0.01
337.341	-0.03
337.705	-0.02
338.068	-0.01
338.431	0.06
338.794	0.12
339.158	0.15
339.521	0.25
339.884	0.22
340.247	0.19
340.61	0.27
340.973	0.23
341.336	0.33
341.699	0.33
342.062	0.27
342.424	0.2
342.787	0.16
343.15	0.2
343.512	0.31
343.875	0.32
344.238	0.35
344.6	0.42
344.963	0.57
345.325	0.61
345.688	0.49
346.05	0.43
346.412	0.53
346.775	0.55
347.137	0.59
347.499	0.51
347.861	0.44
348.223	0.45
348.585	0.37
348.947	0.32
349.309	0.36
349.671	0.31
350.033	0.38
350.395	0.24
350.757	0.21
351.118	0.36
351.48	0.33
351.842	0.25
352.203	0.29
352.565	0.22
352.927	0.17
353.288	0.14
353.65	-0.01
354.011	-0.07
354.372	-0.06
354.734	-0.07
355.095	-0.13
355.456	-0.19
355.817	-0.27
356.179	-0.2
356.54	-0.2
356.901	-0.19
357.262	-0.1
357.623	-0.12
357.984	-0.13
358.345	-0.11
358.705	-0.1
359.066	-0.16
359.427	-0.07
359.788	-0
360.148	-0.08
360.509	-0.02
360.87	-0.02
361.23	-0.16
361.591	-0.18
361.951	-0.1
362.312	-0.1
362.672	-0
363.032	-0.08
363.393	-0.05
363.753	-0.04
364.113	0.04
364.473	0.1
364.833	0.22
365.193	0.16
365.553	0.21
365.913	0.26
366.273	0.17
366.633	0.19
366.993	0.16
367.353	0.15
367.713	0.09
368.072	0.06
368.432	0.1
368.792	0.1
369.151	0.17
369.511	0.14
369.87	0.18
370.23	0.23
370.589	0.26
370.949	0.23
371.308	0.25
371.667	0.18
372.027	0.18
372.386	0.09
372.745	0.05
373.104	0.05
373.463	0.01
373.822	-0.04
374.181	-0.07
374.54	-0.04
374.899	-0.02
375.258	0
375.617	-0.06
375.975	0.05
376.334	0.04
376.693	0.03
377.052	-0
377.41	-0.09
377.769	-0.13
378.127	-0.23
378.486	-0.21
378.844	-0.21
379.202	-0.19
379.561	-0.24
379.919	-0.25
380.277	-0.21
380.636	-0.12
380.994	-0.04
381.352	-0.03
381.71	0.09
382.068	0.06
382.426	0.05
382.784	0.02
383.142	0.09
383.5	0.13
383.857	0.13
384.215	0.11
384.573	0.21
384.931	0.16
385.288	0.11
385.646	0.1
386.003	0.12
386.361	0.13
386.718	0.18
387.076	0.25
387.433	0.31
387.791	0.25
388.148	0.24
388.505	0.25
388.862	0.26
389.22	0.21
389.577	0.15
389.934	0.16
390.291	0.2
390.648	0.11
391.005	0.18
391.362	0.17
391.718	0.18
392.075	0.12
392.432	-0
392.789	-0.04
393.145	0.04
393.502	0.03
393.859	-0.01
394.215	0.01
394.572	0.15
394.928	0.17
395.285	0.13
395.641	0.08
395.997	0.08
396.354	0.04
396.71	0.14
397.066	0.15
397.422	0.13
397.778	0.11
398.134	0.19
398.491	0.27
398.846	0.23
399.202	0.25
399.558	0.3
399.914	0.31
400.27	0.26
400.626	0.23
400.981	0.22
401.337	0.3
401.693	0.35
402.048	0.31
402.404	0.38
402.759	0.47
403.115	0.52
403.47	0.51
403.826	0.58
404.181	0.64
404.536	0.65
404.892	0.6
405.247	0.62
405.602	0.62
405.957	0.68
406.312	0.77
406.667	0.86
407.022	0.9
407.377	0.96
407.732	0.99
408.087	1.05
408.442	0.96
408.796	0.96
409.151	1.02
409.506	1.14
409.86	1.2
410.215	1.24
410.57	1.2
410.924	1.18
411.279	1.08
411.633	1.02
411.987	1.04
412.342	0.96
412.696	0.97
413.05	1.07
413.404	1.19
413.758	1.3
414.113	1.29
414.467	1.24
414.821	1.16
415.175	1.17
415.529	1.19
415.882	1.17
416.236	1.14
416.59	1.22
416.944	1.19
417.298	1.27
417.651	1.27
418.005	1.29
418.358	1.33
418.712	1.43
419.065	1.41
419.419	1.51
419.772	1.6
420.126	1.67
420.479	1.78
420.832	1.88
421.185	2.03
421.539	2.02
421.892	1.91
422.245	1.89
422.598	1.86
422.951	1.92
423.304	1.97
423.657	2.09
424.01	2.12
424.363	2.12
424.715	2.09
425.068	2.09
425.421	2.15
425.773	2.27
426.126	2.4
426.479	2.59
426.831	2.76
427.184	2.77
427.536	2.87
427.889	2.91
428.241	2.88
428.593	2.86
428.945	2.97
429.298	3.03
429.65	3.04
430.002	3.13
430.354	3.25
430.706	3.37
431.058	3.49
431.41	3.63
431.762	3.65
432.114	3.69
432.466	3.71
432.817	3.74
433.169	3.79
433.521	3.76
433.872	3.83
434.224	3.82
434.576	3.82
434.927	3.7
435.279	3.63
435.63	3.59
435.981	3.59
436.333	3.62
436.684	3.59
437.035	3.53
437.387	3.7
437.738	3.7
438.089	3.74
438.44	3.68
438.791	3.61
439.142	3.57
439.493	3.62
439.844	3.59
440.195	3.56
440.545	3.64
440.896	3.62
441.247	3.69
441.598	3.83
441.948	3.75
442.299	3.82
442.649	3.79
443	3.8
443.35	3.71
443.701	3.79
444.051	3.75
444.401	3.68
444.752	3.7
445.102	3.49
445.452	3.61
445.802	3.75
446.152	3.68
446.502	3.71
446.852	3.64
447.202	3.78
447.552	3.85
447.902	3.93
448.252	3.95
448.602	5.3
448.952	5.37
449.301	5.42
449.651	5.51
450.001	5.49
450.35	5.5
450.7	5.64
451.049	5.78
451.399	5.87
451.748	5.95
452.097	6.05
452.447	6.13
452.796	6.23
453.145	6.43
453.494	6.52
453.843	6.71
454.193	6.82
454.542	6.85
454.891	6.89
455.239	6.93
455.588	7.07
455.937	7.06
456.286	7.11
456.635	7.12
456.984	7.08
457.332	5.72
457.681	5.75
458.03	5.84
458.378	5.83
458.727	5.99
459.075	6.11
459.423	6.19
459.772	6.31
460.12	6.39
460.468	6.44
460.817	6.63
461.165	6.77
461.513	6.83
461.861	6.92
462.209	7.02
462.557	7.13
462.905	7.09
463.253	7.11
463.601	7.21
463.949	7.13
464.297	7.15
464.644	7.2
464.992	7.22
465.34	7.24
465.687	7.23
466.035	7.24
466.383	7.29
466.73	7.16
467.078	7.18
467.425	7.16
467.772	7.11
468.12	7.03
468.467	6.87
468.814	6.79
469.161	6.78
469.508	6.75
469.856	6.56
470.203	6.46
470.55	6.29
470.897	6.25
471.243	6.09
471.59	6.05
471.937	5.97
472.284	5.76
472.631	5.89
472.977	5.85
473.324	5.72
473.671	5.53
474.017	5.42
474.364	5.39
474.71	5.25
475.057	5.1
475.403	5.12
475.749	5.13
476.096	5.09
476.442	4.84
476.788	4.71
477.134	4.7
477.48	4.66
477.826	4.6
478.172	4.5
478.518	4.46
478.864	4.57
479.21	4.56
479.556	4.53
479.902	4.55
480.248	4.58
480.593	4.64
480.939	4.76
481.285	4.82
481.63	4.84
481.976	5
482.321	5.18
482.667	5.37
483.012	5.5
483.357	5.64
483.703	5.88
484.048	6.07
484.393	6.27
484.738	6.49
485.084	6.9
485.429	7.27
485.774	7.62
486.119	8.01
486.464	8.28
486.808	8.68
487.153	9.07
487.498	9.28
487.843	9.66
488.188	10.15
488.532	10.65
488.877	11.23
489.222	11.89
489.566	12.49
489.911	13.08
490.255	13.72
490.6	14.31
490.944	14.94
491.288	15.55
491.633	16.32
491.977	17.05
492.321	17.67
492.665	18.33
493.009	19.06
493.353	19.78
493.697	20.52
494.041	21.28
494.385	22.07
494.729	22.82
495.073	23.62
495.417	24.41
495.76	25.3
496.104	26.32
496.448	27.23
496.791	28.02
497.135	29.01
497.479	29.89
497.822	30.74
498.165	31.7
498.509	32.52
498.852	33.42
499.196	34.35
499.539	35.25
499.882	36.11
500.225	36.92
500.568	37.81
500.911	38.63
501.254	39.38
501.597	40.13
501.94	40.88
502.283	41.61
502.626	42.36
502.969	43.09
503.312	43.88
503.654	44.67
503.997	45.38
504.34	46.1
504.682	46.78
505.025	47.38
505.367	48.07
505.71	48.64
506.052	49.16
506.395	49.59
506.737	50.03
507.079	50.51
507.421	51.08
507.764	51.69
508.106	52.25
508.448	52.82
508.79	53.22
509.132	53.62
509.474	54.1
509.816	54.58
510.158	55.07
510.499	55.48
510.841	55.92
511.183	56.24
511.525	56.57
511.866	56.77
512.208	57.19
512.549	57.57
512.891	57.83
513.232	58.09
513.574	58.56
513.915	58.92
514.256	59.29
514.598	59.66
514.939	60.15
515.28	60.44
515.621	60.94
515.962	61.29
516.303	61.58
516.644	61.77
516.985	62.04
517.326	62.28
517.667	62.4
518.008	62.67
518.349	62.94
518.69	63.15
519.03	63.23
519.371	63.34
519.712	63.59
520.052	63.74
520.393	64.02
520.733	63.94
521.074	63.99
521.414	64.42
521.754	64.6
522.095	64.73
522.435	64.82
522.775	64.94
523.115	64.98
523.455	64.9
523.795	65.06
524.135	65.22
524.475	65.27
524.815	65.32
525.155	65.44
525.495	65.3
525.835	65.35
526.175	65.54
526.514	65.53
526.854	65.66
527.194	65.84
527.533	65.97
527.873	66.11
528.212	66.31
528.552	66.44
528.891	66.53
529.23	66.74
529.57	66.83
529.909	66.64
530.248	66.79
530.587	66.86
530.927	66.91
531.266	67
531.605	67.24
531.944	67.4
532.283	67.5
532.621	67.49
532.96	67.59
533.299	67.71
533.638	67.73
533.977	67.78
534.315	67.98
534.654	67.91
534.992	67.93
535.331	68.05
535.67	68.06
536.008	68.2
536.346	68.26
536.685	68.27
537.023	68.42
537.361	68.43
537.7	68.54
538.038	68.6
538.376	68.54
538.714	68.42
539.052	68.2
539.39	68.16
539.728	68.09
540.066	67.99
540.404	68.08
540.741	67.89
541.079	67.92
541.417	67.79
541.755	67.59
542.092	67.53
542.43	67.65
542.767	67.57
543.105	67.77
543.442	67.78
543.78	67.73
544.117	67.61
544.454	67.71
544.792	67.54
545.129	67.62
545.466	67.51
545.803	67.47
546.14	67.45
546.477	67.4
546.814	67.64
547.151	67.67
547.488	67.83
547.825	67.89
548.162	67.76
548.499	67.7
548.835	67.68
549.172	67.6
549.509	67.47
549.845	67.61
550.182	67.75
550.518	67.97
550.855	68.2
551.191	67.98
551.528	67.84
551.864	68.05
552.2	67.94
552.537	67.98
552.873	67.87
553.209	68
553.545	67.76
553.881	67.71
554.217	67.66
554.553	67.47
554.889	67.54
555.225	67.29
555.561	67.25
555.896	67.32
556.232	67.33
556.568	67.44
556.903	67.76
557.239	67.85
557.575	68.22
557.91	68.29
558.245	68.19
558.581	68.21
558.916	68.19
559.252	68.06
559.587	68.46
559.922	68.55
560.257	68.51
560.592	68.53
560.928	68.76
561.263	68.9
561.598	69.11
561.933	69.15
562.267	69.34
562.602	69.44
562.937	69.58
563.272	69.79
563.607	69.79
563.941	70.19
564.276	70.16
564.611	70.29
564.945	70.38
565.28	70.26
565.614	70.25
565.949	70.14
566.283	70.14
566.617	70.53
566.951	70.49
567.286	70.46
567.62	70.43
567.954	70.22
568.288	70.4
568.622	70.21
568.956	70.3
569.29	70.31
569.624	70.18
569.958	70.13
570.292	70.14
570.626	70.12
570.959	70.04
571.293	70.26
571.627	70.01
571.96	70.23
572.294	69.99
572.627	70.09
572.961	70.08
573.294	70
573.627	69.96
573.961	69.91
574.294	69.97
574.627	69.96
574.961	69.71
575.294	69.58
575.627	69.46
575.96	69.44
576.293	69.6
576.626	69.48
576.959	69.51
577.292	69.55
577.624	69.65
577.957	69.74
578.29	69.8
578.623	69.9
578.955	69.97
579.288	70.06
579.62	69.93
579.953	70.22
580.285	70.26
580.618	70.45
580.95	70.47
581.282	70.48
581.615	70.62
581.947	70.56
582.279	70.66
582.611	70.71
582.943	70.81
583.275	70.95
583.607	71.25
583.939	71.49
584.271	71.65
584.603	71.68
584.935	71.59
585.267	71.6
585.598	71.61
585.93	71.37
586.262	71.34
586.593	71.27
586.925	71.22
587.256	71.19
587.588	71.12
587.919	71.17
588.25	71.07
588.582	70.94
588.913	70.92
589.244	70.82
589.575	70.85
589.907	70.89
590.238	71.12
590.569	71.07
590.9	71.04
591.231	70.99
591.562	70.96
591.892	70.79
592.223	70.9
592.554	70.92
592.885	70.93
593.215	71.15
593.546	71.38
593.877	71.24
594.207	71.32
594.538	71.58
594.868	71.6
595.198	71.75
595.529	71.78
595.859	72.06
596.189	72.13
596.52	72.18
596.85	72.37
597.18	72.35
597.51	72.4
597.84	72.44
598.17	72.35
598.5	72.35
598.83	72.33
599.16	72.39
599.489	72.56
599.819	72.56
600.149	72.67
600.479	72.53
600.808	72.39
601.138	72.28
601.467	72.44
601.797	72.38
602.126	72.58
602.456	72.61
602.785	72.62
603.114	72.71
603.443	72.66
603.773	72.64
604.102	72.56
604.431	72.66
604.76	72.63
605.089	72.54
605.418	72.48
605.747	72.68
606.076	72.78
606.405	72.96
606.733	73.04
607.062	73.13
607.391	73.27
607.72	73.18
608.048	73.43
608.377	73.57
608.705	73.71
609.034	73.73
609.362	73.93
609.69	73.92
610.019	74.09
610.347	74.01
610.675	74.18
611.004	73.98
611.332	74.06
611.66	74.2
611.988	74.34
612.316	74.4
612.644	74.22
612.972	74.18
613.3	74.34
613.627	74.53
613.955	74.49
614.283	74.62
614.611	74.59
614.938	74.59
615.266	74.62
615.593	74.53
615.921	74.35
616.248	74.36
616.576	74.56
616.903	74.71
617.23	75.32
617.558	75.35
617.885	75.41
618.212	75.38
618.539	75.79
618.866	75.76
619.193	75.81
619.52	75.67
619.847	75.58
620.174	75.47
620.501	75.48
620.828	75.55
621.155	75.84
621.481	75.68
621.808	75.64
622.135	75.5
622.461	75.49
622.788	75.67
623.114	75.76
623.441	76.03
623.767	75.96
624.093	76.25
624.42	76.53
624.746	76.33
625.072	76.61
625.398	76.39
625.725	76.47
626.051	76.43
626.377	76.75
626.703	76.49
627.029	76.75
627.354	76.91
627.68	77.42
628.006	77.94
628.332	78.11
628.658	78.1
628.983	78.15
629.309	78.18
629.634	78.91
629.96	79.04
630.285	79.09
630.611	78.64
630.936	78.53
631.262	78.11
631.587	78.55
631.912	78.77
632.237	79.14
632.562	78.81
632.887	79.35
633.213	79.5
633.538	80.13
633.863	80.37
634.187	80.44
634.512	80.16
634.837	80.42
635.162	79.77
635.487	80.19
635.811	80.33
636.136	80.12
636.461	80.41
636.785	80.86
637.11	81.3
637.434	81.46
637.758	80.99
638.083	80.79
638.407	81.29
638.731	82.15
639.056	81.46
639.38	82.23
639.704	81.44
640.028	82.48
640.352	82.41
640.676	82.44
641	81.66
641.324	81.26
641.648	80.55
641.972	80.9
642.295	80.77
642.619	80.88
642.943	81.3
643.266	81.84
643.59	81.58
643.913	80.85
644.237	79.96
644.56	79.81
644.884	79.33
645.207	79.75
645.53	79.84
645.854	79.16
646.177	79.58
646.5	79.94
646.823	79.24
647.146	79.63
647.469	79.11
647.792	79.56
648.115	78.84
648.438	78.78
648.761	78.83
649.084	77.98
649.406	77.14
649.729	76.34
650.052	76.17
650.374	76.26
650.697	75.96
651.019	75.6
651.342	75.48
651.664	75.66
651.987	75.83
652.309	75.96
652.631	76.07
652.953	76.08
653.276	75.89
653.598	75.86
653.92	76.1
654.242	76.11
654.564	75.96
654.886	75.99
655.208	76.11
655.53	76.4
655.851	76.28
656.173	76.42
656.495	76.72
656.816	76.46
657.138	77.13
657.46	78.06
657.781	80.27
658.103	81.23
658.424	81.22
658.746	82.54
659.067	83.62
659.388	84.35
659.709	83.51
660.031	83.26
660.352	83.76
660.673	82.79
660.994	82.63
661.315	82.72
661.636	82.42
661.957	82.51
662.278	82.84
