Data from T2__Reflection__20__00-08-55-840.txt Node

Date: Sat Jun 05 00:08:55 CEST 2021
User: mabdelazizm
Spectrometer: FLMS18565
Trigger mode: 0
Integration Time (sec): 2.000000E0
Scans to average: 1
Electric dark correction enabled: true
Nonlinearity correction enabled: false
Boxcar width: 12
XAxis mode: Wavelengths
Number of Pixels in Spectrum: 2048
>>>>>Begin Spectral Data<<<<<
179.071	124.76
179.452	169.08
179.833	203.23
180.214	211.39
180.595	358.15
180.977	1455.88
181.358	441.15
181.739	464.29
182.12	213.96
182.501	196.15
182.882	181.43
183.262	257.89
183.643	-585.62
184.024	-108.12
184.405	-20.78
184.786	5.51
185.166	64.1
185.547	74.26
185.927	70.66
186.308	68.29
186.689	75.79
187.069	78.83
187.449	64.77
187.83	63.63
188.21	54.23
188.59	43.05
188.971	47.53
189.351	46.51
189.731	46.49
190.111	42.66
190.491	45.85
190.871	41.08
191.251	48.58
191.631	45.47
192.011	39.4
192.391	36.17
192.771	38.51
193.151	41.2
193.531	40.56
193.91	33.1
194.29	33.31
194.67	28.75
195.049	28.18
195.429	28.64
195.808	25.59
196.188	21.48
196.567	18.46
196.946	18.83
197.326	20.08
197.705	23.94
198.084	26.48
198.464	23.25
198.843	24.99
199.222	23.94
199.601	24.8
199.98	24.31
200.359	24.02
200.738	23.33
201.117	19.38
201.496	20.46
201.875	19.16
202.254	19.19
202.632	18.09
203.011	19.33
203.39	23.14
203.768	22.35
204.147	23.79
204.525	21.75
204.904	21.7
205.282	23.53
205.661	24.4
206.039	25.05
206.418	23.89
206.796	25.69
207.174	23.36
207.552	22.94
207.931	23.1
208.309	23.12
208.687	22.39
209.065	22.09
209.443	18.98
209.821	19.24
210.199	18.16
210.577	19.2
210.954	19
211.332	18.94
211.71	16.96
212.088	17.13
212.465	15.73
212.843	15.9
213.221	17.41
213.598	15.25
213.976	14.85
214.353	13.57
214.731	13.35
215.108	11.5
215.485	10.31
215.863	8.27
216.24	5.31
216.617	6.79
216.994	6.75
217.371	7.06
217.749	6.27
218.126	6.61
218.503	6.36
218.88	7.24
219.256	7.68
219.633	8.01
220.01	7.83
220.387	7.91
220.764	7.38
221.14	6.63
221.517	7.26
221.894	6.51
222.27	5.28
222.647	4.92
223.023	5.55
223.4	4.88
223.776	4.59
224.153	3.45
224.529	4.54
224.905	5.28
225.282	5.66
225.658	5.07
226.034	4.52
226.41	4.15
226.786	3.83
227.162	3.46
227.538	3.44
227.914	3.1
228.29	2.96
228.666	2.35
229.042	2.15
229.418	2.33
229.793	2.22
230.169	2.17
230.545	2.25
230.92	2.15
231.296	2.21
231.672	2.14
232.047	1.85
232.422	1.55
232.798	1.61
233.173	1.64
233.549	1.72
233.924	1.48
234.299	1.3
234.674	1.38
235.05	1.63
235.425	1.53
235.8	1.44
236.175	1.37
236.55	1.46
236.925	1.5
237.3	1.58
237.675	1.67
238.049	1.8
238.424	1.76
238.799	1.69
239.174	1.76
239.548	1.71
239.923	1.58
240.297	1.34
240.672	1.35
241.046	1.27
241.421	1.26
241.795	1.28
242.17	1.22
242.544	1.18
242.918	1.12
243.293	1.07
243.667	1.03
244.041	1.01
244.415	0.95
244.789	0.88
245.163	0.86
245.537	0.87
245.911	0.83
246.285	0.71
246.659	0.65
247.033	0.62
247.406	0.58
247.78	0.57
248.154	0.51
248.528	0.43
248.901	0.51
249.275	0.55
249.648	0.6
250.022	0.57
250.395	0.65
250.769	0.61
251.142	0.69
251.515	0.73
251.888	0.74
252.262	0.76
252.635	0.76
253.008	0.69
253.381	0.67
253.754	0.66
254.127	0.71
254.5	0.75
254.873	0.71
255.246	0.71
255.619	0.75
255.992	0.76
256.364	0.74
256.737	0.7
257.11	0.76
257.483	0.78
257.855	0.77
258.228	0.69
258.6	0.72
258.973	0.81
259.345	0.84
259.718	0.77
260.09	0.78
260.462	0.75
260.834	0.8
261.207	0.76
261.579	0.75
261.951	0.78
262.323	0.82
262.695	0.85
263.067	0.87
263.439	0.9
263.811	0.92
264.183	0.95
264.555	0.93
264.927	0.9
265.298	0.92
265.67	0.89
266.042	0.91
266.413	0.84
266.785	0.84
267.156	0.86
267.528	0.91
267.899	0.87
268.271	0.8
268.642	0.77
269.013	0.79
269.385	0.76
269.756	0.65
270.127	0.61
270.498	0.62
270.87	0.62
271.241	0.63
271.612	0.65
271.983	0.6
272.354	0.61
272.724	0.59
273.095	0.54
273.466	0.53
273.837	0.55
274.208	0.59
274.578	0.58
274.949	0.6
275.32	0.59
275.69	0.61
276.061	0.62
276.431	0.61
276.802	0.58
277.172	0.57
277.542	0.59
277.913	0.62
278.283	0.64
278.653	0.7
279.023	0.8
279.394	0.81
279.764	0.81
280.134	0.78
280.504	0.81
280.874	0.79
281.244	0.8
281.614	0.75
281.983	0.72
282.353	0.75
282.723	0.76
283.093	0.76
283.462	0.73
283.832	0.68
284.202	0.69
284.571	0.68
284.941	0.69
285.31	0.7
285.68	0.7
286.049	0.68
286.418	0.72
286.788	0.72
287.157	0.65
287.526	0.64
287.895	0.62
288.264	0.59
288.633	0.65
289.002	0.64
289.371	0.65
289.74	0.58
290.109	0.61
290.478	0.59
290.847	0.58
291.216	0.6
291.585	0.59
291.953	0.59
292.322	0.61
292.691	0.61
293.059	0.63
293.428	0.63
293.796	0.65
294.165	0.6
294.533	0.57
294.901	0.55
295.27	0.57
295.638	0.53
296.006	0.45
296.374	0.45
296.743	0.44
297.111	0.37
297.479	0.36
297.847	0.26
298.215	0.3
298.583	0.27
298.95	0.27
299.318	0.26
299.686	0.32
300.054	0.33
300.422	0.3
300.789	0.27
301.157	0.21
301.525	0.19
301.892	0.15
302.26	0.19
302.627	0.14
302.994	0.14
303.362	0.15
303.729	0.16
304.097	0.18
304.464	0.2
304.831	0.18
305.198	0.23
305.565	0.25
305.932	0.22
306.299	0.27
306.666	0.32
307.033	0.31
307.4	0.28
307.767	0.32
308.134	0.31
308.501	0.3
308.867	0.25
309.234	0.24
309.601	0.3
309.967	0.29
310.334	0.29
310.701	0.31
311.067	0.32
311.433	0.32
311.8	0.33
312.166	0.3
312.533	0.32
312.899	0.32
313.265	0.36
313.631	0.33
313.997	0.34
314.363	0.37
314.729	0.33
315.096	0.33
315.461	0.31
315.827	0.26
316.193	0.3
316.559	0.33
316.925	0.34
317.291	0.38
317.656	0.37
318.022	0.39
318.388	0.37
318.753	0.3
319.119	0.33
319.484	0.33
319.85	0.34
320.215	0.34
320.581	0.29
320.946	0.32
321.311	0.34
321.676	0.32
322.042	0.33
322.407	0.29
322.772	0.31
323.137	0.28
323.502	0.22
323.867	0.26
324.232	0.22
324.597	0.22
324.962	0.26
325.327	0.21
325.691	0.21
326.056	0.25
326.421	0.23
326.785	0.18
327.15	0.19
327.514	0.2
327.879	0.22
328.243	0.19
328.608	0.24
328.972	0.2
329.337	0.19
329.701	0.26
330.065	0.18
330.429	0.16
330.794	0.11
331.158	0.07
331.522	0.04
331.886	0.05
332.25	0.04
332.614	0.07
332.978	0.05
333.342	0.08
333.705	0.07
334.069	-0.01
334.433	0.01
334.797	-0.01
335.16	-0.05
335.524	-0.09
335.887	-0.08
336.251	-0.12
336.614	-0.14
336.978	-0.13
337.341	-0.14
337.705	-0.2
338.068	-0.19
338.431	-0.14
338.794	-0.2
339.158	-0.15
339.521	-0.16
339.884	-0.09
340.247	-0.08
340.61	-0.07
340.973	-0.08
341.336	-0.08
341.699	-0.09
342.062	-0.1
342.424	-0.07
342.787	-0.09
343.15	-0.07
343.512	-0.09
343.875	-0.06
344.238	-0.07
344.6	-0.06
344.963	-0.02
345.325	-0.05
345.688	0.01
346.05	-0.02
346.412	0.01
346.775	0.08
347.137	0.13
347.499	0.06
347.861	0.06
348.223	0.05
348.585	0.07
348.947	0.08
349.309	0.04
349.671	0
350.033	-0.01
350.395	-0.04
350.757	-0.07
351.118	-0.09
351.48	-0.15
351.842	-0.16
352.203	-0.13
352.565	-0.11
352.927	-0.14
353.288	-0.12
353.65	-0.13
354.011	-0.12
354.372	-0.09
354.734	-0.13
355.095	-0.13
355.456	-0.2
355.817	-0.32
356.179	-0.39
356.54	-0.37
356.901	-0.4
357.262	-0.39
357.623	-0.44
357.984	-0.44
358.345	-0.42
358.705	-0.38
359.066	-0.41
359.427	-0.33
359.788	-0.32
360.148	-0.25
360.509	-0.16
360.87	-0.13
361.23	-0.09
361.591	-0.06
361.951	-0.1
362.312	-0.15
362.672	-0.08
363.032	-0.03
363.393	0
363.753	0.02
364.113	0.04
364.473	0.13
364.833	0.2
365.193	0.19
365.553	0.21
365.913	0.16
366.273	0.22
366.633	0.26
366.993	0.27
367.353	0.28
367.713	0.25
368.072	0.3
368.432	0.32
368.792	0.32
369.151	0.28
369.511	0.27
369.87	0.28
370.23	0.27
370.589	0.19
370.949	0.18
371.308	0.21
371.667	0.16
372.027	0.11
372.386	0.06
372.745	0.06
373.104	0.09
373.463	0.05
373.822	0.05
374.181	0.08
374.54	0.09
374.899	0.13
375.258	0.12
375.617	0.14
375.975	0.07
376.334	0.03
376.693	0.08
377.052	0.02
377.41	-0.02
377.769	0.01
378.127	0.01
378.486	0.03
378.844	0.03
379.202	0.01
379.561	0.01
379.919	0.01
380.277	-0.02
380.636	-0.02
380.994	-0.06
381.352	-0.08
381.71	-0.06
382.068	-0.02
382.426	-0.02
382.784	0.01
383.142	0.01
383.5	-0.05
383.857	-0.07
384.215	-0.16
384.573	-0.21
384.931	-0.21
385.288	-0.23
385.646	-0.25
386.003	-0.24
386.361	-0.24
386.718	-0.24
387.076	-0.24
387.433	-0.27
387.791	-0.24
388.148	-0.21
388.505	-0.17
388.862	-0.13
389.22	-0.07
389.577	-0.13
389.934	-0.08
390.291	-0.07
390.648	-0.08
391.005	-0.12
391.362	-0.09
391.718	-0.1
392.075	-0.13
392.432	-0.17
392.789	-0.14
393.145	-0.11
393.502	-0.03
393.859	-0.03
394.215	0
394.572	0.04
394.928	-0.02
395.285	-0.03
395.641	-0.07
395.997	0
396.354	-0.05
396.71	-0.05
397.066	-0.1
397.422	-0.09
397.778	-0.11
398.134	-0.18
398.491	-0.14
398.846	-0.1
399.202	-0.1
399.558	-0.07
399.914	-0.14
400.27	-0.12
400.626	-0.14
400.981	-0.13
401.337	-0.03
401.693	-0.02
402.048	0.01
402.404	-0.05
402.759	-0.04
403.115	-0.04
403.47	0.01
403.826	0.06
404.181	0.11
404.536	0.1
404.892	0.04
405.247	0.07
405.602	0.02
405.957	0
406.312	-0.02
406.667	0.01
407.022	0.04
407.377	0.05
407.732	0.01
408.087	0.03
408.442	0.02
408.796	0.08
409.151	0.1
409.506	0.1
409.86	0.14
410.215	0.06
410.57	0.08
410.924	0.08
411.279	0.07
411.633	0.15
411.987	0.13
412.342	0.12
412.696	0.14
413.05	0.12
413.404	0.16
413.758	0.19
414.113	0.13
414.467	0.18
414.821	0.25
415.175	0.28
415.529	0.25
415.882	0.25
416.236	0.28
416.59	0.29
416.944	0.28
417.298	0.21
417.651	0.18
418.005	0.13
418.358	0.15
418.712	0.11
419.065	0.14
419.419	0.12
419.772	0.1
420.126	0.1
420.479	0.04
420.832	0.08
421.185	0.09
421.539	0.07
421.892	0.08
422.245	0.04
422.598	0.09
422.951	0.22
423.304	0.21
423.657	0.19
424.01	0.13
424.363	0.21
424.715	0.26
425.068	0.34
425.421	0.36
425.773	0.34
426.126	0.45
426.479	0.49
426.831	0.46
427.184	0.48
427.536	0.54
427.889	0.53
428.241	0.56
428.593	0.62
428.945	0.6
429.298	0.65
429.65	0.65
430.002	0.5
430.354	0.55
430.706	0.61
431.058	0.66
431.41	0.65
431.762	0.53
432.114	0.47
432.466	0.44
432.817	0.58
433.169	0.61
433.521	0.55
433.872	0.46
434.224	0.49
434.576	0.57
434.927	0.45
435.279	0.45
435.63	0.44
435.981	0.43
436.333	0.44
436.684	0.48
437.035	0.51
437.387	0.47
437.738	0.5
438.089	0.48
438.44	0.5
438.791	0.56
439.142	0.59
439.493	0.47
439.844	0.37
440.195	0.36
440.545	0.52
440.896	0.63
441.247	0.6
441.598	0.5
441.948	0.44
442.299	0.43
442.649	0.35
443	0.25
443.35	0.24
443.701	0.2
444.051	0.18
444.401	0.23
444.752	0.24
445.102	0.2
445.452	0.11
445.802	0.08
446.152	0.15
446.502	0.21
446.852	0.17
447.202	0.14
447.552	0.11
447.902	0.1
448.252	0.12
448.602	-0.27
448.952	-0.39
449.301	-0.45
449.651	-0.51
450.001	-0.45
450.35	-0.44
450.7	-0.44
451.049	-0.47
451.399	-0.43
451.748	-0.38
452.097	-0.42
452.447	-0.41
452.796	-0.44
453.145	-0.32
453.494	-0.31
453.843	-0.38
454.193	-0.34
454.542	-0.31
454.891	-0.36
455.239	-0.37
455.588	-0.33
455.937	-0.29
456.286	-0.17
456.635	-0.2
456.984	-0.13
457.332	0.48
457.681	0.63
458.03	0.67
458.378	0.66
458.727	0.76
459.075	0.87
459.423	0.96
459.772	0.94
460.12	0.95
460.468	1.13
460.817	1.2
461.165	1.31
461.513	1.44
461.861	1.46
462.209	1.43
462.557	1.48
462.905	1.58
463.253	1.65
463.601	1.69
463.949	1.67
464.297	1.65
464.644	1.6
464.992	1.53
465.34	1.59
465.687	1.57
466.035	1.55
466.383	1.39
466.73	1.25
467.078	1.29
467.425	1.24
467.772	1.12
468.12	1.01
468.467	1.11
468.814	1.18
469.161	1.01
469.508	0.98
469.856	0.85
470.203	0.81
470.55	0.6
470.897	0.67
471.243	0.67
471.59	0.63
471.937	0.55
472.284	0.53
472.631	0.51
472.977	0.54
473.324	0.62
473.671	0.6
474.017	0.56
474.364	0.53
474.71	0.51
475.057	0.54
475.403	0.56
475.749	0.52
476.096	0.52
476.442	0.55
476.788	0.51
477.134	0.54
477.48	0.48
477.826	0.5
478.172	0.5
478.518	0.6
478.864	0.68
479.21	0.78
479.556	0.73
479.902	0.84
480.248	0.84
480.593	0.86
480.939	0.84
481.285	0.95
481.63	0.94
481.976	0.88
482.321	0.92
482.667	0.97
483.012	1.04
483.357	1.04
483.703	1.1
484.048	1.18
484.393	1.29
484.738	1.38
485.084	1.46
485.429	1.61
485.774	1.7
486.119	1.86
486.464	1.96
486.808	2.06
487.153	2.21
487.498	2.35
487.843	2.48
488.188	2.74
488.532	2.95
488.877	3.21
489.222	3.51
489.566	3.82
489.911	4.16
490.255	4.55
490.6	4.98
490.944	5.31
491.288	5.7
491.633	6.13
491.977	6.63
492.321	7.08
492.665	7.57
493.009	8.02
493.353	8.54
493.697	9.05
494.041	9.66
494.385	10.22
494.729	10.77
495.073	11.38
495.417	12.06
495.76	12.72
496.104	13.3
496.448	14.02
496.791	14.7
497.135	15.31
497.479	16.04
497.822	16.73
498.165	17.47
498.509	18.15
498.852	18.83
499.196	19.52
499.539	20.39
499.882	21.1
500.225	21.88
500.568	22.63
500.911	23.41
501.254	24.1
501.597	24.8
501.94	25.46
502.283	26.12
502.626	26.84
502.969	27.45
503.312	28.15
503.654	28.82
503.997	29.5
504.34	30.24
504.682	30.91
505.025	31.52
505.367	32.14
505.71	32.86
506.052	33.42
506.395	34.05
506.737	34.63
507.079	35.17
507.421	35.77
507.764	36.39
508.106	36.85
508.448	37.37
508.79	37.78
509.132	38.22
509.474	38.73
509.816	39.18
510.158	39.71
510.499	40.2
510.841	40.67
511.183	41.02
511.525	41.48
511.866	41.93
512.208	42.34
512.549	42.67
512.891	43
513.232	43.37
513.574	43.85
513.915	44.17
514.256	44.47
514.598	44.85
514.939	45.21
515.28	45.55
515.621	45.82
515.962	46.21
516.303	46.63
516.644	47
516.985	47.34
517.326	47.67
517.667	48.01
518.008	48.2
518.349	48.53
518.69	48.82
519.03	49.12
519.371	49.36
519.712	49.67
520.052	49.99
520.393	50.22
520.733	50.5
521.074	50.75
521.414	50.98
521.754	51.24
522.095	51.44
522.435	51.79
522.775	51.99
523.115	52.21
523.455	52.26
523.795	52.41
524.135	52.46
524.475	52.72
524.815	52.83
525.155	53.05
525.495	53.24
525.835	53.38
526.175	53.43
526.514	53.75
526.854	54
527.194	54.13
527.533	54.24
527.873	54.47
528.212	54.65
528.552	54.67
528.891	54.79
529.23	54.88
529.57	55.03
529.909	55.16
530.248	55.25
530.587	55.3
530.927	55.26
531.266	55.33
531.605	55.41
531.944	55.63
532.283	55.83
532.621	56.2
532.96	56.24
533.299	56.37
533.638	56.36
533.977	56.39
534.315	56.56
534.654	56.74
534.992	56.74
535.331	56.7
535.67	56.75
536.008	56.79
536.346	56.81
536.685	56.96
537.023	57.08
537.361	57.11
537.7	57.22
538.038	57.17
538.376	57.22
538.714	57.25
539.052	57.4
539.39	57.53
539.728	57.64
540.066	57.64
540.404	57.8
540.741	57.82
541.079	57.9
541.417	57.88
541.755	57.96
542.092	57.93
542.43	58.07
542.767	57.96
543.105	57.98
543.442	57.98
543.78	57.96
544.117	58.02
544.454	58.09
544.792	58.12
545.129	58.05
545.466	58.09
545.803	58.21
546.14	58.17
546.477	58.34
546.814	58.33
547.151	58.47
547.488	58.41
547.825	58.35
548.162	58.36
548.499	58.63
548.835	58.57
549.172	58.47
549.509	58.49
549.845	58.57
550.182	58.58
550.518	58.77
550.855	58.89
551.191	59.09
551.528	59.19
551.864	59.15
552.2	59.27
552.537	59.31
552.873	59.33
553.209	59.37
553.545	59.45
553.881	59.55
554.217	59.52
554.553	59.75
554.889	59.63
555.225	59.79
555.561	59.8
555.896	59.88
556.232	59.86
556.568	60.07
556.903	59.97
557.239	60.02
557.575	60.33
557.91	60.43
558.245	60.57
558.581	60.51
558.916	60.59
559.252	60.38
559.587	60.35
559.922	60.36
560.257	60.5
560.592	60.44
560.928	60.52
561.263	60.59
561.598	60.75
561.933	60.9
562.267	61
562.602	61.17
562.937	61.15
563.272	61.35
563.607	61.3
563.941	61.5
564.276	61.49
564.611	61.82
564.945	61.75
565.28	62.02
565.614	62.06
565.949	62.02
566.283	61.92
566.617	61.79
566.951	61.85
567.286	61.78
567.62	61.96
567.954	62.16
568.288	62.15
568.622	62.1
568.956	62.09
569.29	62.07
569.624	62.01
569.958	62.1
570.292	62.07
570.626	62.02
570.959	61.85
571.293	61.88
571.627	61.96
571.96	61.93
572.294	61.87
572.627	61.98
572.961	61.88
573.294	61.86
573.627	61.78
573.961	61.83
574.294	61.89
574.627	61.99
574.961	62.07
575.294	62.22
575.627	62.21
575.96	62.29
576.293	62.15
576.626	62.13
576.959	62.16
577.292	62.19
577.624	62.22
577.957	62.33
578.29	62.21
578.623	62.15
578.955	62.1
579.288	62.26
579.62	62.19
579.953	62.1
580.285	62.21
580.618	62.3
580.95	62.29
581.282	62.31
581.615	62.39
581.947	62.33
582.279	62.29
582.611	62.23
582.943	62.28
583.275	62.29
583.607	62.23
583.939	62.25
584.271	62.17
584.603	62.25
584.935	62.26
585.267	62.37
585.598	62.49
585.93	62.48
586.262	62.45
586.593	62.55
586.925	62.62
587.256	62.75
587.588	62.76
587.919	62.78
588.25	62.93
588.582	62.95
588.913	62.79
589.244	62.86
589.575	63.03
589.907	63.09
590.238	63.16
590.569	63.29
590.9	63.35
591.231	63.35
591.562	63.42
591.892	63.4
592.223	63.63
592.554	63.68
592.885	63.69
593.215	63.69
593.546	63.61
593.877	63.7
594.207	63.73
594.538	63.75
594.868	63.72
595.198	63.65
595.529	63.56
595.859	63.62
596.189	63.7
596.52	63.64
596.85	63.69
597.18	63.74
597.51	63.6
597.84	63.45
598.17	63.47
598.5	63.46
598.83	63.47
599.16	63.43
599.489	63.29
599.819	63.36
600.149	63.27
600.479	62.99
600.808	62.83
601.138	62.76
601.467	62.8
601.797	62.72
602.126	62.57
602.456	62.59
602.785	62.54
603.114	62.53
603.443	62.59
603.773	62.65
604.102	62.54
604.431	62.56
604.76	62.46
605.089	62.36
605.418	62.27
605.747	62.44
606.076	62.64
606.405	62.59
606.733	62.58
607.062	62.49
607.391	62.49
607.72	62.72
608.048	62.66
608.377	62.59
608.705	62.65
609.034	62.89
609.362	62.86
609.69	63.01
610.019	63.09
610.347	63.21
610.675	63.09
611.004	63.16
611.332	63.09
611.66	63.09
611.988	63.05
612.316	63.09
612.644	63.03
612.972	63.15
613.3	63.09
613.627	63.17
613.955	62.92
614.283	62.81
614.611	62.79
614.938	62.73
615.266	62.58
615.593	62.49
615.921	62.21
616.248	62.22
616.576	62.39
616.903	62.56
617.23	62.47
617.558	62.53
617.885	62.5
618.212	62.62
618.539	62.46
618.866	62.55
619.193	62.6
619.52	62.65
619.847	62.94
620.174	63.12
620.501	63.14
620.828	63.28
621.155	63.18
621.481	63.28
621.808	63.46
622.135	63.57
622.461	63.44
622.788	63.27
623.114	63.51
623.441	63.85
623.767	63.95
624.093	64.24
624.42	64.18
624.746	64.44
625.072	64.44
625.398	64.47
625.725	64.41
626.051	64.57
626.377	64.69
626.703	64.72
627.029	64.86
627.354	64.83
627.68	64.56
628.006	64.24
628.332	63.92
628.658	63.75
628.983	63.54
629.309	63.65
629.634	63.96
629.96	63.9
630.285	63.87
630.611	63.8
630.936	63.64
631.262	63.91
631.587	63.59
631.912	63.77
632.237	63.44
632.562	63.55
632.887	63.48
633.213	63.42
633.538	63.38
633.863	63.38
634.187	62.98
634.512	62.47
634.837	62.78
635.162	62.55
635.487	62.51
635.811	63.31
636.136	63.4
636.461	63.33
636.785	63.64
637.11	63.95
637.434	64.49
637.758	64.07
638.083	64.31
638.407	63.89
638.731	63.81
639.056	64.47
639.38	63.74
639.704	64.04
640.028	64.21
640.352	64.67
640.676	64.79
641	64.56
641.324	64.59
641.648	64.75
641.972	64.58
642.295	64.95
642.619	65.17
642.943	64.5
643.266	64.11
643.59	63.69
643.913	63.57
644.237	63.43
644.56	63.66
644.884	63.58
645.207	63.84
645.53	63.48
645.854	64.02
646.177	63.66
646.5	63.96
646.823	64.33
647.146	64.08
647.469	64
647.792	63.7
648.115	63.19
648.438	62.92
648.761	63.56
649.084	64.01
649.406	64.06
649.729	63.43
650.052	63.2
650.374	63.02
650.697	62.99
651.019	63.05
651.342	63.04
651.664	63.05
651.987	63.01
652.309	63.08
652.631	63.07
652.953	63.04
653.276	62.99
653.598	63.02
653.92	62.78
654.242	62.77
654.564	62.69
654.886	62.73
655.208	62.75
655.53	63.02
655.851	63.01
656.173	63.22
656.495	63.25
656.816	62.77
657.138	62.3
657.46	61.67
657.781	62.14
658.103	63.06
658.424	63.22
658.746	63.33
659.067	63.73
659.388	63.65
659.709	64.71
660.031	64.35
