Data from T2_Reflection__25__19-04-38-254.txt Node

Date: Fri Jun 04 19:04:38 CEST 2021
User: mabdelazizm
Spectrometer: FLMS18565
Trigger mode: 0
Integration Time (sec): 2.000000E0
Scans to average: 1
Electric dark correction enabled: true
Nonlinearity correction enabled: false
Boxcar width: 12
XAxis mode: Wavelengths
Number of Pixels in Spectrum: 2048
>>>>>Begin Spectral Data<<<<<
179.071	-76.88
179.452	-56.18
179.833	-150.78
180.214	-173.08
180.595	-163.87
180.977	-243.35
181.358	-154.97
181.739	-151.96
182.12	-70.21
182.501	-126.81
182.882	-107.35
183.262	-525.71
183.643	-104.93
184.024	-50.76
184.405	-26.66
184.786	-16.63
185.166	-26.41
185.547	-8.84
185.927	1.23
186.308	-3.15
186.689	9.66
187.069	3.24
187.449	-0.09
187.83	-1.84
188.21	-6.06
188.59	-2.03
188.971	-2.15
189.351	-0.58
189.731	-3.17
190.111	0.54
190.491	-2.1
190.871	-7.5
191.251	-5.66
191.631	-4.27
192.011	-2.22
192.391	-1.61
192.771	-0.27
193.151	-0.74
193.531	-0.34
193.91	0.19
194.29	1.72
194.67	1.25
195.049	-0.93
195.429	-6.46
195.808	-8.61
196.188	-8.93
196.567	-6.8
196.946	-4.05
197.326	-5.17
197.705	-1.56
198.084	-1.84
198.464	-2.49
198.843	-1.27
199.222	1.3
199.601	0.22
199.98	-0.15
200.359	2.01
200.738	2.34
201.117	-0.94
201.496	-3.72
201.875	-3.26
202.254	-4.01
202.632	-3.63
203.011	-2.11
203.39	-1.18
203.768	-2.1
204.147	-0.92
204.525	-1.09
204.904	1.21
205.282	5.54
205.661	2.44
206.039	3.19
206.418	1.02
206.796	2.39
207.174	2.07
207.552	2.25
207.931	1.55
208.309	0.69
208.687	0.08
209.065	2.04
209.443	3.56
209.821	0.92
210.199	-0.2
210.577	0.86
210.954	3.16
211.332	2.01
211.71	1.82
212.088	2.83
212.465	0.39
212.843	-0.38
213.221	1.86
213.598	1.92
213.976	-0.02
214.353	-0.21
214.731	-2.27
215.108	0.11
215.485	-0.19
215.863	-1.01
216.24	-1.32
216.617	-1.99
216.994	-2.83
217.371	-1.16
217.749	-0.99
218.126	-0.89
218.503	-1.79
218.88	-2.33
219.256	-1.22
219.633	-1.11
220.01	-1.8
220.387	-1.17
220.764	-1.29
221.14	-0.45
221.517	-1.19
221.894	-0.85
222.27	-0.67
222.647	-1.56
223.023	-1.76
223.4	-1.2
223.776	-0.36
224.153	-0.47
224.529	-0.55
224.905	-0.18
225.282	0.17
225.658	0.19
226.034	0.18
226.41	0.58
226.786	0.13
227.162	0.21
227.538	0.23
227.914	0.13
228.29	0.13
228.666	0.16
229.042	0.26
229.418	0.66
229.793	0.42
230.169	0.47
230.545	0.25
230.92	0.33
231.296	0.18
231.672	0.12
232.047	0.1
232.422	0.13
232.798	0.29
233.173	0.17
233.549	0.39
233.924	0.56
234.299	0.47
234.674	0.61
235.05	0.61
235.425	0.65
235.8	0.65
236.175	0.72
236.55	0.87
236.925	0.9
237.3	0.99
237.675	1.05
238.049	0.99
238.424	1.14
238.799	1.18
239.174	1.3
239.548	1.31
239.923	1.44
240.297	1.38
240.672	1.49
241.046	1.61
241.421	1.63
241.795	1.68
242.17	1.67
242.544	1.74
242.918	1.69
243.293	1.58
243.667	1.57
244.041	1.59
244.415	1.61
244.789	1.6
245.163	1.62
245.537	1.64
245.911	1.64
246.285	1.61
246.659	1.65
247.033	1.67
247.406	1.8
247.78	1.76
248.154	1.73
248.528	1.79
248.901	1.82
249.275	1.83
249.648	1.92
250.022	1.89
250.395	1.81
250.769	1.84
251.142	1.86
251.515	1.9
251.888	1.84
252.262	1.9
252.635	1.94
253.008	1.98
253.381	1.96
253.754	1.99
254.127	2.02
254.5	2
254.873	1.99
255.246	1.94
255.619	1.97
255.992	1.95
256.364	1.93
256.737	1.86
257.11	1.82
257.483	1.82
257.855	1.77
258.228	1.77
258.6	1.76
258.973	1.79
259.345	1.83
259.718	1.85
260.09	1.81
260.462	1.77
260.834	1.73
261.207	1.76
261.579	1.7
261.951	1.71
262.323	1.67
262.695	1.66
263.067	1.67
263.439	1.68
263.811	1.72
264.183	1.72
264.555	1.73
264.927	1.72
265.298	1.7
265.67	1.66
266.042	1.63
266.413	1.66
266.785	1.66
267.156	1.63
267.528	1.59
267.899	1.55
268.271	1.53
268.642	1.44
269.013	1.43
269.385	1.45
269.756	1.47
270.127	1.44
270.498	1.46
270.87	1.45
271.241	1.48
271.612	1.45
271.983	1.48
272.354	1.44
272.724	1.43
273.095	1.41
273.466	1.44
273.837	1.47
274.208	1.49
274.578	1.5
274.949	1.57
275.32	1.59
275.69	1.55
276.061	1.54
276.431	1.54
276.802	1.52
277.172	1.56
277.542	1.5
277.913	1.52
278.283	1.57
278.653	1.6
279.023	1.57
279.394	1.61
279.764	1.6
280.134	1.59
280.504	1.49
280.874	1.54
281.244	1.49
281.614	1.48
281.983	1.44
282.353	1.48
282.723	1.49
283.093	1.49
283.462	1.48
283.832	1.46
284.202	1.4
284.571	1.4
284.941	1.38
285.31	1.41
285.68	1.44
286.049	1.45
286.418	1.4
286.788	1.43
287.157	1.48
287.526	1.49
287.895	1.46
288.264	1.51
288.633	1.47
289.002	1.44
289.371	1.47
289.74	1.49
290.109	1.43
290.478	1.4
290.847	1.43
291.216	1.44
291.585	1.4
291.953	1.34
292.322	1.31
292.691	1.29
293.059	1.24
293.428	1.25
293.796	1.28
294.165	1.32
294.533	1.29
294.901	1.27
295.27	1.3
295.638	1.28
296.006	1.24
296.374	1.17
296.743	1.15
297.111	1.13
297.479	1.06
297.847	1.09
298.215	1.11
298.583	1.11
298.95	1.1
299.318	1.12
299.686	1.14
300.054	1.13
300.422	1.16
300.789	1.11
301.157	1.14
301.525	1.13
301.892	1.13
302.26	1.15
302.627	1.21
302.994	1.19
303.362	1.24
303.729	1.27
304.097	1.23
304.464	1.25
304.831	1.31
305.198	1.29
305.565	1.32
305.932	1.29
306.299	1.27
306.666	1.28
307.033	1.25
307.4	1.24
307.767	1.19
308.134	1.19
308.501	1.17
308.867	1.18
309.234	1.22
309.601	1.21
309.967	1.18
310.334	1.19
310.701	1.2
311.067	1.18
311.433	1.23
311.8	1.13
312.166	1.14
312.533	1.07
312.899	1.07
313.265	1.13
313.631	1.12
313.997	1.11
314.363	1.14
314.729	1.13
315.096	1.17
315.461	1.17
315.827	1.22
316.193	1.21
316.559	1.25
316.925	1.29
317.291	1.34
317.656	1.35
318.022	1.35
318.388	1.33
318.753	1.28
319.119	1.33
319.484	1.35
319.85	1.3
320.215	1.33
320.581	1.27
320.946	1.33
321.311	1.32
321.676	1.32
322.042	1.32
322.407	1.28
322.772	1.29
323.137	1.32
323.502	1.34
323.867	1.35
324.232	1.3
324.597	1.29
324.962	1.26
325.327	1.27
325.691	1.24
326.056	1.24
326.421	1.24
326.785	1.25
327.15	1.23
327.514	1.19
327.879	1.25
328.243	1.27
328.608	1.19
328.972	1.22
329.337	1.21
329.701	1.24
330.065	1.21
330.429	1.22
330.794	1.24
331.158	1.24
331.522	1.18
331.886	1.13
332.25	1.09
332.614	1.08
332.978	1.08
333.342	1.1
333.705	1.09
334.069	1.09
334.433	1.08
334.797	1.09
335.16	1.07
335.524	1.08
335.887	1.1
336.251	1.12
336.614	1.11
336.978	1.1
337.341	1.08
337.705	1.11
338.068	1.14
338.431	1.13
338.794	1.05
339.158	1.07
339.521	1.08
339.884	1.02
340.247	1.01
340.61	1.1
340.973	1.12
341.336	1.1
341.699	1.11
342.062	1.1
342.424	1.08
342.787	1.11
343.15	1.1
343.512	1.12
343.875	1.09
344.238	1.1
344.6	1.03
344.963	0.97
345.325	0.99
345.688	1.02
346.05	1.01
346.412	1.02
346.775	1
347.137	0.99
347.499	1
347.861	1.08
348.223	1.07
348.585	0.96
348.947	0.99
349.309	0.92
349.671	0.93
350.033	0.9
350.395	0.94
350.757	0.87
351.118	0.8
351.48	0.8
351.842	0.82
352.203	0.81
352.565	0.76
352.927	0.8
353.288	0.78
353.65	0.74
354.011	0.76
354.372	0.81
354.734	0.8
355.095	0.76
355.456	0.76
355.817	0.76
356.179	0.73
356.54	0.72
356.901	0.7
357.262	0.68
357.623	0.76
357.984	0.82
358.345	0.87
358.705	0.82
359.066	0.81
359.427	0.81
359.788	0.87
360.148	0.96
360.509	0.99
360.87	0.99
361.23	1
361.591	1.06
361.951	0.99
362.312	1.03
362.672	1.07
363.032	1.04
363.393	0.95
363.753	0.94
364.113	0.96
364.473	0.94
364.833	0.98
365.193	0.99
365.553	0.96
365.913	0.91
366.273	0.91
366.633	0.93
366.993	0.83
367.353	0.8
367.713	0.88
368.072	0.86
368.432	0.9
368.792	0.86
369.151	0.81
369.511	0.83
369.87	0.75
370.23	0.81
370.589	0.76
370.949	0.79
371.308	0.76
371.667	0.77
372.027	0.82
372.386	0.86
372.745	0.85
373.104	0.87
373.463	0.88
373.822	0.9
374.181	0.93
374.54	0.94
374.899	0.98
375.258	0.94
375.617	0.97
375.975	0.99
376.334	0.99
376.693	0.93
377.052	1.03
377.41	0.94
377.769	1.01
378.127	1.06
378.486	0.99
378.844	0.98
379.202	0.9
379.561	0.86
379.919	0.88
380.277	0.88
380.636	0.9
380.994	0.89
381.352	0.9
381.71	0.87
382.068	0.89
382.426	0.88
382.784	0.87
383.142	0.81
383.5	0.88
383.857	0.93
384.215	0.97
384.573	0.87
384.931	0.96
385.288	0.95
385.646	0.96
386.003	0.91
386.361	0.93
386.718	0.89
387.076	0.84
387.433	0.88
387.791	0.93
388.148	0.97
388.505	1
388.862	0.97
389.22	1
389.577	1.03
389.934	1.04
390.291	1
390.648	1.05
391.005	0.96
391.362	0.93
391.718	0.92
392.075	0.96
392.432	0.92
392.789	0.88
393.145	0.91
393.502	0.97
393.859	0.94
394.215	0.96
394.572	0.94
394.928	0.97
395.285	0.9
395.641	0.91
395.997	0.9
396.354	0.9
396.71	0.97
397.066	0.95
397.422	0.98
397.778	0.95
398.134	0.96
398.491	0.91
398.846	0.91
399.202	0.93
399.558	0.86
399.914	0.94
400.27	0.91
400.626	0.85
400.981	0.83
401.337	0.87
401.693	0.85
402.048	0.8
402.404	0.78
402.759	0.77
403.115	0.74
403.47	0.74
403.826	0.71
404.181	0.79
404.536	0.74
404.892	0.71
405.247	0.66
405.602	0.58
405.957	0.58
406.312	0.61
406.667	0.63
407.022	0.63
407.377	0.68
407.732	0.7
408.087	0.6
408.442	0.7
408.796	0.69
409.151	0.78
409.506	0.84
409.86	0.82
410.215	0.75
410.57	0.73
410.924	0.85
411.279	0.85
411.633	0.83
411.987	0.85
412.342	0.9
412.696	0.92
413.05	0.92
413.404	0.99
413.758	1.08
414.113	1.16
414.467	1.2
414.821	1.22
415.175	1.19
415.529	1.16
415.882	1.13
416.236	1.11
416.59	1.07
416.944	1.16
417.298	1.14
417.651	1.13
418.005	1.16
418.358	1.19
418.712	1.21
419.065	1.26
419.419	1.29
419.772	1.17
420.126	1.19
420.479	1.19
420.832	1.15
421.185	1.17
421.539	1.08
421.892	1.08
422.245	1.01
422.598	1
422.951	1.03
423.304	0.97
423.657	0.96
424.01	0.92
424.363	0.94
424.715	1
425.068	0.95
425.421	0.97
425.773	0.97
426.126	1.07
426.479	1.05
426.831	1
427.184	0.95
427.536	1
427.889	1.04
428.241	1.06
428.593	1.15
428.945	1.16
429.298	1.19
429.65	1.24
430.002	1.25
430.354	1.35
430.706	1.37
431.058	1.42
431.41	1.42
431.762	1.35
432.114	1.42
432.466	1.48
432.817	1.57
433.169	1.65
433.521	1.63
433.872	1.65
434.224	1.68
434.576	1.75
434.927	1.68
435.279	1.63
435.63	1.63
435.981	1.68
436.333	1.71
436.684	1.71
437.035	1.7
437.387	1.69
437.738	1.72
438.089	1.78
438.44	1.72
438.791	1.65
439.142	1.67
439.493	1.72
439.844	1.81
440.195	1.85
440.545	1.92
440.896	1.99
441.247	2.05
441.598	2.03
441.948	2.07
442.299	2.08
442.649	2.18
443	2.21
443.35	2.18
443.701	2.16
444.051	2.18
444.401	2.19
444.752	2.17
445.102	2.09
445.452	1.96
445.802	1.96
446.152	1.96
446.502	1.97
446.852	1.84
447.202	1.92
447.552	1.99
447.902	1.98
448.252	1.84
448.602	2.11
448.952	2.08
449.301	2.05
449.651	2.09
450.001	2.01
450.35	1.95
450.7	1.93
451.049	1.93
451.399	1.96
451.748	1.89
452.097	1.96
452.447	1.92
452.796	2.06
453.145	2.13
453.494	2.18
453.843	2.29
454.193	2.45
454.542	2.41
454.891	2.44
455.239	2.42
455.588	2.54
455.937	2.48
456.286	2.42
456.635	2.35
456.984	2.48
457.332	2.19
457.681	2.21
458.03	2.26
458.378	2.2
458.727	2.26
459.075	2.32
459.423	2.39
459.772	2.41
460.12	2.31
460.468	2.37
460.817	2.41
461.165	2.48
461.513	2.47
461.861	2.45
462.209	2.48
462.557	2.53
462.905	2.49
463.253	2.59
463.601	2.66
463.949	2.71
464.297	2.71
464.644	2.86
464.992	2.95
465.34	3.06
465.687	3.12
466.035	2.95
466.383	3
466.73	2.94
467.078	2.88
467.425	2.85
467.772	2.92
468.12	2.84
468.467	2.88
468.814	2.98
469.161	3.04
469.508	3.01
469.856	2.97
470.203	2.93
470.55	2.89
470.897	2.92
471.243	2.84
471.59	2.89
471.937	2.84
472.284	2.81
472.631	2.76
472.977	2.83
473.324	2.83
473.671	2.7
474.017	2.69
474.364	2.6
474.71	2.69
475.057	2.63
475.403	2.7
475.749	2.75
476.096	2.77
476.442	2.73
476.788	2.76
477.134	2.75
477.48	2.73
477.826	2.75
478.172	2.69
478.518	2.75
478.864	2.81
479.21	2.84
479.556	2.77
479.902	2.82
480.248	2.84
480.593	2.84
480.939	2.71
481.285	2.74
481.63	2.66
481.976	2.68
482.321	2.81
482.667	2.84
483.012	2.89
483.357	2.94
483.703	3.01
484.048	3.05
484.393	3.16
484.738	3.19
485.084	3.17
485.429	3.25
485.774	3.25
486.119	3.3
486.464	3.33
486.808	3.46
487.153	3.46
487.498	3.51
487.843	3.54
488.188	3.7
488.532	3.85
488.877	3.94
489.222	4.08
489.566	4.32
489.911	4.51
490.255	4.73
490.6	4.83
490.944	4.93
491.288	5.1
491.633	5.34
491.977	5.51
492.321	5.7
492.665	5.88
493.009	6.04
493.353	6.31
493.697	6.55
494.041	6.71
494.385	6.99
494.729	7.23
495.073	7.48
495.417	7.69
495.76	8.02
496.104	8.32
496.448	8.67
496.791	8.9
497.135	9.15
497.479	9.44
497.822	9.77
498.165	10.1
498.509	10.44
498.852	10.78
499.196	11.18
499.539	11.53
499.882	11.83
500.225	12.15
500.568	12.53
500.911	12.85
501.254	13.25
501.597	13.63
501.94	13.98
502.283	14.32
502.626	14.74
502.969	15.09
503.312	15.47
503.654	15.91
503.997	16.23
504.34	16.61
504.682	16.95
505.025	17.27
505.367	17.7
505.71	18.01
506.052	18.35
506.395	18.73
506.737	19.13
507.079	19.5
507.421	19.93
507.764	20.25
508.106	20.59
508.448	21.04
508.79	21.36
509.132	21.69
509.474	22.06
509.816	22.34
510.158	22.64
510.499	22.96
510.841	23.38
511.183	23.7
511.525	23.98
511.866	24.23
512.208	24.45
512.549	24.84
512.891	25.24
513.232	25.61
513.574	25.99
513.915	26.28
514.256	26.57
514.598	26.86
514.939	27.13
515.28	27.27
515.621	27.46
515.962	27.54
516.303	27.82
516.644	28.08
516.985	28.29
517.326	28.58
517.667	28.82
518.008	28.97
518.349	29.24
518.69	29.43
519.03	29.66
519.371	29.88
519.712	30.03
520.052	30.26
520.393	30.45
520.733	30.71
521.074	30.9
521.414	31.05
521.754	31.22
522.095	31.37
522.435	31.52
522.775	31.72
523.115	32.01
523.455	32.2
523.795	32.38
524.135	32.57
524.475	32.77
524.815	32.9
525.155	33.19
525.495	33.3
525.835	33.35
526.175	33.47
526.514	33.7
526.854	33.7
527.194	33.77
527.533	33.85
527.873	33.83
528.212	33.99
528.552	34.16
528.891	34.31
529.23	34.33
529.57	34.31
529.909	34.28
530.248	34.2
530.587	34.33
530.927	34.37
531.266	34.42
531.605	34.42
531.944	34.42
532.283	34.59
532.621	34.63
532.96	34.78
533.299	34.79
533.638	34.76
533.977	34.91
534.315	35.03
534.654	35.06
534.992	35.15
535.331	35.32
535.67	35.45
536.008	35.54
536.346	35.64
536.685	35.6
537.023	35.64
537.361	35.76
537.7	35.79
538.038	35.85
538.376	35.88
538.714	36.06
539.052	36.01
539.39	36.13
539.728	36.19
540.066	36.15
540.404	36.2
540.741	36.14
541.079	36.13
541.417	36.07
541.755	36.1
542.092	36.03
542.43	35.87
542.767	35.84
543.105	35.83
543.442	35.74
543.78	35.67
544.117	35.66
544.454	35.68
544.792	35.76
545.129	35.89
545.466	35.98
545.803	35.88
546.14	35.9
546.477	36.03
546.814	36.12
547.151	36
547.488	36.07
547.825	36.07
548.162	36.08
548.499	36.13
548.835	36.24
549.172	36.35
549.509	36.5
549.845	36.51
550.182	36.69
550.518	36.8
550.855	36.9
551.191	36.94
551.528	36.9
551.864	37.07
552.2	37.16
552.537	37.24
552.873	37.23
553.209	37.15
553.545	36.97
553.881	36.85
554.217	36.74
554.553	36.79
554.889	36.87
555.225	36.78
555.561	36.82
555.896	36.88
556.232	36.87
556.568	36.94
556.903	36.91
557.239	36.85
557.575	36.88
557.91	36.82
558.245	37.01
558.581	36.95
558.916	37.06
559.252	37.11
559.587	37.13
559.922	37.16
560.257	37.06
560.592	37.04
560.928	37.09
561.263	37.26
561.598	37.33
561.933	37.52
562.267	37.53
562.602	37.71
562.937	37.8
563.272	37.74
563.607	37.77
563.941	38.05
564.276	38.11
564.611	38.18
564.945	38.19
565.28	38.4
565.614	38.3
565.949	38.27
566.283	38.33
566.617	38.35
566.951	38.5
567.286	38.55
567.62	38.58
567.954	38.66
568.288	38.7
568.622	38.67
568.956	38.71
569.29	38.71
569.624	38.46
569.958	38.45
570.292	38.46
570.626	38.48
570.959	38.63
571.293	38.51
571.627	38.56
571.96	38.64
572.294	38.54
572.627	38.48
572.961	38.42
573.294	38.43
573.627	38.41
573.961	38.47
574.294	38.54
574.627	38.6
574.961	38.62
575.294	38.53
575.627	38.65
575.96	38.58
576.293	38.48
576.626	38.53
576.959	38.57
577.292	38.55
577.624	38.57
577.957	38.69
578.29	38.81
578.623	38.84
578.955	38.96
579.288	38.84
579.62	38.97
579.953	38.94
580.285	38.93
580.618	38.95
580.95	39.03
581.282	39.06
581.615	39.11
581.947	39.01
582.279	39.1
582.611	39.03
582.943	38.9
583.275	38.88
583.607	38.99
583.939	38.8
584.271	38.79
584.603	38.9
584.935	38.87
585.267	38.85
585.598	38.89
585.93	38.84
586.262	38.93
586.593	38.88
586.925	38.8
587.256	38.68
587.588	38.66
587.919	38.57
588.25	38.58
588.582	38.62
588.913	38.75
589.244	38.72
589.575	38.74
589.907	38.69
590.238	38.75
590.569	38.69
590.9	38.76
591.231	38.89
591.562	38.81
591.892	38.74
592.223	38.81
592.554	38.89
592.885	38.79
593.215	38.75
593.546	38.72
593.877	38.77
594.207	38.78
594.538	38.68
594.868	38.62
595.198	38.59
595.529	38.52
595.859	38.44
596.189	38.6
596.52	38.6
596.85	38.66
597.18	38.57
597.51	38.61
597.84	38.64
598.17	38.62
598.5	38.66
598.83	38.69
599.16	38.79
599.489	38.78
599.819	38.82
600.149	38.7
600.479	38.48
600.808	38.43
601.138	38.48
601.467	38.46
601.797	38.45
602.126	38.29
602.456	38.32
602.785	38.38
603.114	38.32
603.443	38.34
603.773	38.41
604.102	38.58
604.431	38.46
604.76	38.43
605.089	38.29
605.418	38.28
605.747	38.12
606.076	38.05
606.405	38.03
606.733	38.05
607.062	37.96
607.391	37.8
607.72	37.8
608.048	37.75
608.377	37.72
608.705	38.09
609.034	38.14
609.362	38.14
609.69	38.27
610.019	38.33
610.347	38.41
610.675	38.41
611.004	38.5
611.332	38.53
611.66	38.65
611.988	38.57
612.316	38.63
612.644	38.59
612.972	38.64
613.3	38.76
613.627	38.69
613.955	38.8
614.283	38.72
614.611	38.67
614.938	38.69
615.266	38.66
615.593	38.62
615.921	38.47
616.248	38.57
616.576	38.74
616.903	38.5
617.23	38.37
617.558	38.32
617.885	38.24
618.212	38.39
618.539	38.43
618.866	38.2
619.193	37.91
619.52	37.93
619.847	37.85
620.174	38.05
620.501	37.79
620.828	37.93
621.155	38.12
621.481	37.9
621.808	38.1
622.135	38.13
622.461	38.11
622.788	38.2
623.114	38.22
623.441	38.23
623.767	38.31
624.093	38.42
624.42	38.37
624.746	38.67
625.072	38.62
625.398	38.93
625.725	39.02
626.051	38.88
626.377	38.73
626.703	38.6
627.029	38.74
627.354	38.75
627.68	38.52
628.006	38.54
628.332	38.67
628.658	38.72
628.983	38.65
629.309	38.26
629.634	38.26
629.96	38.01
630.285	37.45
630.611	37.54
630.936	37.61
631.262	37.94
631.587	38.08
631.912	37.94
632.237	38.12
632.562	38.48
632.887	38.23
633.213	38.46
633.538	38.5
633.863	38.57
634.187	38.5
634.512	38.52
634.837	38.35
635.162	38.54
635.487	38.54
635.811	39.14
636.136	39.3
636.461	38.93
636.785	39
637.11	39.41
637.434	39.41
637.758	39.34
638.083	39.2
638.407	39.64
638.731	39.43
639.056	39.4
639.38	38.81
639.704	39.17
640.028	39.46
640.352	39.66
640.676	38.84
641	38.81
641.324	38.81
641.648	38.3
641.972	38.2
642.295	38.77
642.619	38.62
642.943	38.58
643.266	37.97
643.59	37.7
643.913	37.34
644.237	37.35
644.56	37.09
644.884	37.66
645.207	36.96
645.53	36.9
645.854	37.07
646.177	37.37
646.5	37.63
646.823	38.12
647.146	38.32
647.469	38.58
647.792	38.14
648.115	38.24
648.438	38.1
648.761	38.66
649.084	38.64
649.406	38.59
649.729	38.34
650.052	38.35
650.374	38.06
650.697	38.08
651.019	38.04
651.342	38.05
651.664	38.26
651.987	38.24
652.309	38.22
652.631	38.36
652.953	38.16
653.276	38.19
653.598	38.26
653.92	38.12
654.242	38.08
654.564	37.98
654.886	37.76
655.208	37.61
655.53	37.61
655.851	37.56
656.173	37.44
656.495	37.39
656.816	37.1
657.138	36.68
657.46	35.98
657.781	35.85
658.103	34.73
658.424	34.55
658.746	34.34
659.067	34.39
659.388	34.89
659.709	34.45
660.031	34.44
660.352	33.79
660.673	32.64
660.994	32.11
661.315	32.5
661.636	32.35
661.957	32.72
662.278	32.15
662.599	32.23
662.919	32.6
663.24	33.05
663.561	31.85
663.881	31.44
