Data from T2_Reflection__19__19-00-10-263.txt Node

Date: Fri Jun 04 19:00:10 CEST 2021
User: mabdelazizm
Spectrometer: FLMS18565
Trigger mode: 0
Integration Time (sec): 2.000000E0
Scans to average: 1
Electric dark correction enabled: true
Nonlinearity correction enabled: false
Boxcar width: 12
XAxis mode: Wavelengths
Number of Pixels in Spectrum: 2048
>>>>>Begin Spectral Data<<<<<
179.071	100.52
179.452	90.9
179.833	77.19
180.214	44.23
180.595	-1.92
180.977	102.28
181.358	132.46
181.739	22.91
182.12	0.11
182.501	27.74
182.882	-9.92
183.262	-237.14
183.643	2.81
184.024	22.54
184.405	15.25
184.786	25.25
185.166	8.7
185.547	21.35
185.927	21.92
186.308	7.63
186.689	2.96
187.069	-6.02
187.449	-7.8
187.83	-8.89
188.21	-6.26
188.59	-2.2
188.971	-3.07
189.351	-0.22
189.731	1.03
190.111	3.04
190.491	0.57
190.871	-3.28
191.251	1.46
191.631	6.04
192.011	6.29
192.391	7.94
192.771	7.53
193.151	4.96
193.531	1.85
193.91	1.34
194.29	-2.35
194.67	-3.37
195.049	-7.54
195.429	-8.34
195.808	-6.67
196.188	-6.9
196.567	-7.97
196.946	-5.62
197.326	-7.46
197.705	-7.4
198.084	-9.7
198.464	-10.28
198.843	-7.93
199.222	-8.43
199.601	-8.1
199.98	-9.01
200.359	-6.57
200.738	-6.35
201.117	-8.61
201.496	-13.45
201.875	-12.6
202.254	-11.33
202.632	-13.29
203.011	-12.82
203.39	-13.05
203.768	-10.83
204.147	-7.62
204.525	-6.68
204.904	-8.11
205.282	-7.89
205.661	-10.76
206.039	-10.02
206.418	-13.1
206.796	-10.78
207.174	-12.37
207.552	-10.26
207.931	-12.74
208.309	-13.7
208.687	-13.7
209.065	-11.71
209.443	-11.19
209.821	-13.33
210.199	-15.49
210.577	-15.82
210.954	-11.58
211.332	-12.76
211.71	-11.87
212.088	-10.15
212.465	-9.12
212.843	-8.51
213.221	-7.33
213.598	-6.99
213.976	-7.54
214.353	-7.55
214.731	-7.95
215.108	-5.94
215.485	-4.35
215.863	-3.22
216.24	-4.78
216.617	-3.53
216.994	-4
217.371	-3.27
217.749	-3.44
218.126	-3.88
218.503	-4.88
218.88	-4.97
219.256	-5.04
219.633	-3.61
220.01	-3.91
220.387	-4.17
220.764	-3.54
221.14	-3.06
221.517	-3.89
221.894	-3.73
222.27	-3.84
222.647	-3.98
223.023	-4.32
223.4	-4
223.776	-2.87
224.153	-3.15
224.529	-2.75
224.905	-2.7
225.282	-2.64
225.658	-2.51
226.034	-2.85
226.41	-2.6
226.786	-2.42
227.162	-2.01
227.538	-1.7
227.914	-1.81
228.29	-2.03
228.666	-1.47
229.042	-1.6
229.418	-1.06
229.793	-1.41
230.169	-1.5
230.545	-1.69
230.92	-1.41
231.296	-1.34
231.672	-1.21
232.047	-1.16
232.422	-1.06
232.798	-0.95
233.173	-1.11
233.549	-0.84
233.924	-0.76
234.299	-0.56
234.674	-0.59
235.05	-0.48
235.425	-0.41
235.8	-0.45
236.175	-0.35
236.55	-0.26
236.925	-0.26
237.3	-0.14
237.675	0.02
238.049	-0.08
238.424	-0.04
238.799	-0.05
239.174	0.2
239.548	0.27
239.923	0.38
240.297	0.35
240.672	0.37
241.046	0.45
241.421	0.42
241.795	0.43
242.17	0.45
242.544	0.53
242.918	0.45
243.293	0.4
243.667	0.26
244.041	0.37
244.415	0.41
244.789	0.47
245.163	0.47
245.537	0.43
245.911	0.39
246.285	0.43
246.659	0.45
247.033	0.4
247.406	0.45
247.78	0.45
248.154	0.38
248.528	0.35
248.901	0.3
249.275	0.29
249.648	0.35
250.022	0.35
250.395	0.29
250.769	0.28
251.142	0.3
251.515	0.3
251.888	0.23
252.262	0.29
252.635	0.34
253.008	0.41
253.381	0.38
253.754	0.38
254.127	0.37
254.5	0.41
254.873	0.45
255.246	0.45
255.619	0.47
255.992	0.46
256.364	0.49
256.737	0.46
257.11	0.44
257.483	0.51
257.855	0.51
258.228	0.56
258.6	0.55
258.973	0.55
259.345	0.59
259.718	0.59
260.09	0.62
260.462	0.56
260.834	0.54
261.207	0.59
261.579	0.56
261.951	0.54
262.323	0.47
262.695	0.49
263.067	0.5
263.439	0.49
263.811	0.49
264.183	0.47
264.555	0.47
264.927	0.47
265.298	0.45
265.67	0.42
266.042	0.4
266.413	0.43
266.785	0.38
267.156	0.33
267.528	0.29
267.899	0.31
268.271	0.3
268.642	0.23
269.013	0.23
269.385	0.24
269.756	0.27
270.127	0.2
270.498	0.15
270.87	0.15
271.241	0.14
271.612	0.16
271.983	0.13
272.354	0.09
272.724	0.08
273.095	0.11
273.466	0.06
273.837	0.04
274.208	0.03
274.578	-0.01
274.949	0.03
275.32	0.06
275.69	0.04
276.061	-0.02
276.431	-0.03
276.802	-0.06
277.172	-0.11
277.542	-0.13
277.913	-0.11
278.283	-0.09
278.653	-0.12
279.023	-0.15
279.394	-0.07
279.764	-0.07
280.134	-0.05
280.504	-0.07
280.874	-0.07
281.244	-0.06
281.614	-0.05
281.983	-0.09
282.353	-0.13
282.723	-0.01
283.093	0.01
283.462	0.01
283.832	0.04
284.202	0.03
284.571	0.01
284.941	0.01
285.31	0.08
285.68	0.11
286.049	0.13
286.418	0.14
286.788	0.16
287.157	0.16
287.526	0.16
287.895	0.2
288.264	0.2
288.633	0.18
289.002	0.18
289.371	0.22
289.74	0.18
290.109	0.17
290.478	0.15
290.847	0.19
291.216	0.27
291.585	0.26
291.953	0.18
292.322	0.19
292.691	0.16
293.059	0.11
293.428	0.1
293.796	0.13
294.165	0.16
294.533	0.17
294.901	0.16
295.27	0.23
295.638	0.23
296.006	0.19
296.374	0.12
296.743	0.14
297.111	0.1
297.479	0.12
297.847	0.12
298.215	0.12
298.583	0.07
298.95	0.1
299.318	0.13
299.686	0.1
300.054	0.08
300.422	0.05
300.789	0.03
301.157	0.03
301.525	0.02
301.892	0.02
302.26	0.06
302.627	0.1
302.994	0.07
303.362	0.08
303.729	0.11
304.097	0.11
304.464	0.03
304.831	0.07
305.198	0.09
305.565	0.19
305.932	0.14
306.299	0.11
306.666	0.09
307.033	0.07
307.4	0.11
307.767	0.07
308.134	0.04
308.501	0.02
308.867	0.04
309.234	0.06
309.601	0.08
309.967	0.08
310.334	0.11
310.701	0.11
311.067	0.07
311.433	0.1
311.8	0.02
312.166	0.02
312.533	-0.05
312.899	-0.04
313.265	-0.04
313.631	-0.05
313.997	-0.09
314.363	-0.12
314.729	-0.2
315.096	-0.19
315.461	-0.16
315.827	-0.13
316.193	-0.13
316.559	-0.14
316.925	-0.1
317.291	-0.06
317.656	-0.07
318.022	-0.13
318.388	-0.17
318.753	-0.21
319.119	-0.22
319.484	-0.22
319.85	-0.27
320.215	-0.26
320.581	-0.28
320.946	-0.29
321.311	-0.33
321.676	-0.31
322.042	-0.38
322.407	-0.4
322.772	-0.39
323.137	-0.4
323.502	-0.29
323.867	-0.25
324.232	-0.32
324.597	-0.33
324.962	-0.35
325.327	-0.35
325.691	-0.32
326.056	-0.34
326.421	-0.33
326.785	-0.33
327.15	-0.31
327.514	-0.36
327.879	-0.35
328.243	-0.31
328.608	-0.31
328.972	-0.25
329.337	-0.24
329.701	-0.24
330.065	-0.25
330.429	-0.2
330.794	-0.22
331.158	-0.22
331.522	-0.25
331.886	-0.26
332.25	-0.24
332.614	-0.35
332.978	-0.35
333.342	-0.27
333.705	-0.29
334.069	-0.35
334.433	-0.39
334.797	-0.42
335.16	-0.44
335.524	-0.43
335.887	-0.42
336.251	-0.42
336.614	-0.39
336.978	-0.36
337.341	-0.42
337.705	-0.41
338.068	-0.43
338.431	-0.4
338.794	-0.44
339.158	-0.4
339.521	-0.42
339.884	-0.45
340.247	-0.43
340.61	-0.39
340.973	-0.38
341.336	-0.38
341.699	-0.44
342.062	-0.48
342.424	-0.51
342.787	-0.47
343.15	-0.43
343.512	-0.36
343.875	-0.37
344.238	-0.32
344.6	-0.4
344.963	-0.43
345.325	-0.39
345.688	-0.43
346.05	-0.46
346.412	-0.41
346.775	-0.44
347.137	-0.47
347.499	-0.52
347.861	-0.47
348.223	-0.51
348.585	-0.48
348.947	-0.43
349.309	-0.48
349.671	-0.48
350.033	-0.51
350.395	-0.52
350.757	-0.53
351.118	-0.6
351.48	-0.61
351.842	-0.64
352.203	-0.66
352.565	-0.73
352.927	-0.72
353.288	-0.74
353.65	-0.67
354.011	-0.64
354.372	-0.63
354.734	-0.59
355.095	-0.59
355.456	-0.66
355.817	-0.68
356.179	-0.67
356.54	-0.62
356.901	-0.68
357.262	-0.7
357.623	-0.74
357.984	-0.73
358.345	-0.67
358.705	-0.65
359.066	-0.68
359.427	-0.71
359.788	-0.64
360.148	-0.57
360.509	-0.54
360.87	-0.48
361.23	-0.46
361.591	-0.4
361.951	-0.48
362.312	-0.5
362.672	-0.5
363.032	-0.53
363.393	-0.58
363.753	-0.61
364.113	-0.66
364.473	-0.62
364.833	-0.59
365.193	-0.62
365.553	-0.66
365.913	-0.69
366.273	-0.65
366.633	-0.69
366.993	-0.75
367.353	-0.81
367.713	-0.82
368.072	-0.8
368.432	-0.76
368.792	-0.78
369.151	-0.78
369.511	-0.77
369.87	-0.83
370.23	-0.82
370.589	-0.82
370.949	-0.77
371.308	-0.81
371.667	-0.82
372.027	-0.8
372.386	-0.74
372.745	-0.73
373.104	-0.71
373.463	-0.69
373.822	-0.68
374.181	-0.68
374.54	-0.62
374.899	-0.54
375.258	-0.56
375.617	-0.52
375.975	-0.52
376.334	-0.48
376.693	-0.47
377.052	-0.41
377.41	-0.4
377.769	-0.42
378.127	-0.41
378.486	-0.46
378.844	-0.47
379.202	-0.43
379.561	-0.49
379.919	-0.46
380.277	-0.39
380.636	-0.42
380.994	-0.44
381.352	-0.55
381.71	-0.58
382.068	-0.56
382.426	-0.61
382.784	-0.62
383.142	-0.66
383.5	-0.69
383.857	-0.73
384.215	-0.74
384.573	-0.81
384.931	-0.78
385.288	-0.78
385.646	-0.8
386.003	-0.85
386.361	-0.91
386.718	-0.86
387.076	-0.83
387.433	-0.78
387.791	-0.83
388.148	-0.89
388.505	-0.9
388.862	-0.91
389.22	-0.93
389.577	-0.86
389.934	-0.86
390.291	-0.81
390.648	-0.77
391.005	-0.78
391.362	-0.81
391.718	-0.83
392.075	-0.81
392.432	-0.79
392.789	-0.78
393.145	-0.74
393.502	-0.65
393.859	-0.65
394.215	-0.62
394.572	-0.64
394.928	-0.7
395.285	-0.67
395.641	-0.63
395.997	-0.68
396.354	-0.7
396.71	-0.63
397.066	-0.62
397.422	-0.58
397.778	-0.64
398.134	-0.64
398.491	-0.72
398.846	-0.73
399.202	-0.66
399.558	-0.72
399.914	-0.72
400.27	-0.69
400.626	-0.71
400.981	-0.69
401.337	-0.64
401.693	-0.62
402.048	-0.67
402.404	-0.69
402.759	-0.69
403.115	-0.74
403.47	-0.71
403.826	-0.64
404.181	-0.7
404.536	-0.79
404.892	-0.79
405.247	-0.85
405.602	-0.91
405.957	-0.95
406.312	-0.93
406.667	-0.86
407.022	-0.85
407.377	-0.78
407.732	-0.73
408.087	-0.85
408.442	-0.77
408.796	-0.79
409.151	-0.74
409.506	-0.67
409.86	-0.74
410.215	-0.8
410.57	-0.84
410.924	-0.76
411.279	-0.78
411.633	-0.8
411.987	-0.76
412.342	-0.74
412.696	-0.73
413.05	-0.66
413.404	-0.6
413.758	-0.56
414.113	-0.47
414.467	-0.36
414.821	-0.36
415.175	-0.34
415.529	-0.41
415.882	-0.42
416.236	-0.52
416.59	-0.58
416.944	-0.45
417.298	-0.38
417.651	-0.3
418.005	-0.24
418.358	-0.2
418.712	-0.17
419.065	-0.18
419.419	-0.12
419.772	-0.18
420.126	-0.05
420.479	0.04
420.832	-0.01
421.185	0.02
421.539	0.07
421.892	0.1
422.245	0.15
422.598	0.19
422.951	0.21
423.304	0.16
423.657	0.2
424.01	0.2
424.363	0.25
424.715	0.27
425.068	0.35
425.421	0.41
425.773	0.37
426.126	0.46
426.479	0.42
426.831	0.36
427.184	0.32
427.536	0.38
427.889	0.45
428.241	0.46
428.593	0.46
428.945	0.46
429.298	0.48
429.65	0.56
430.002	0.59
430.354	0.67
430.706	0.68
431.058	0.69
431.41	0.69
431.762	0.71
432.114	0.77
432.466	0.84
432.817	0.91
433.169	1.03
433.521	1.03
433.872	1.1
434.224	1.11
434.576	1.01
434.927	0.91
435.279	0.93
435.63	1.02
435.981	1.12
436.333	1.17
436.684	1.2
437.035	1.19
437.387	1.21
437.738	1.15
438.089	1.18
438.44	1.17
438.791	1.11
439.142	1.07
439.493	1.03
439.844	1
440.195	1.01
440.545	0.99
440.896	1
441.247	0.97
441.598	0.94
441.948	0.92
442.299	0.97
442.649	0.99
443	1.02
443.35	1.12
443.701	1.07
444.051	1.08
444.401	0.99
444.752	0.89
445.102	0.86
445.452	0.8
445.802	0.75
446.152	0.77
446.502	0.76
446.852	0.62
447.202	0.64
447.552	0.66
447.902	0.7
448.252	0.68
448.602	0.99
448.952	0.97
449.301	0.99
449.651	0.98
450.001	0.95
450.35	0.88
450.7	0.88
451.049	0.87
451.399	0.93
451.748	0.95
452.097	1.08
452.447	1.11
452.796	1.15
453.145	1.26
453.494	1.35
453.843	1.48
454.193	1.53
454.542	1.6
454.891	1.71
455.239	1.8
455.588	1.98
455.937	1.96
456.286	1.97
456.635	1.92
456.984	1.99
457.332	1.73
457.681	1.81
458.03	1.86
458.378	1.84
458.727	1.93
459.075	2.01
459.423	2.15
459.772	2.18
460.12	2.07
460.468	2.14
460.817	2.16
461.165	2.25
461.513	2.29
461.861	2.24
462.209	2.21
462.557	2.32
462.905	2.34
463.253	2.45
463.601	2.52
463.949	2.48
464.297	2.41
464.644	2.51
464.992	2.64
465.34	2.71
465.687	2.78
466.035	2.68
466.383	2.67
466.73	2.62
467.078	2.62
467.425	2.67
467.772	2.76
468.12	2.63
468.467	2.53
468.814	2.49
469.161	2.39
469.508	2.37
469.856	2.31
470.203	2.27
470.55	2.21
470.897	2.25
471.243	1.98
471.59	1.96
471.937	1.88
472.284	1.81
472.631	1.69
472.977	1.69
473.324	1.7
473.671	1.5
474.017	1.43
474.364	1.38
474.71	1.47
475.057	1.42
475.403	1.43
475.749	1.45
476.096	1.45
476.442	1.39
476.788	1.38
477.134	1.45
477.48	1.55
477.826	1.62
478.172	1.52
478.518	1.58
478.864	1.64
479.21	1.75
479.556	1.74
479.902	1.86
480.248	1.93
480.593	1.92
480.939	1.89
481.285	2.03
481.63	2.08
481.976	2.07
482.321	2.22
482.667	2.35
483.012	2.39
483.357	2.45
483.703	2.61
484.048	2.78
484.393	2.93
484.738	3
485.084	3.1
485.429	3.26
485.774	3.39
486.119	3.53
486.464	3.7
486.808	3.98
487.153	4.17
487.498	4.41
487.843	4.59
488.188	4.91
488.532	5.25
488.877	5.59
489.222	6.04
489.566	6.52
489.911	7.01
490.255	7.46
490.6	7.96
490.944	8.46
491.288	8.95
491.633	9.54
491.977	10.05
492.321	10.66
492.665	11.2
493.009	11.85
493.353	12.53
493.697	13.18
494.041	13.9
494.385	14.64
494.729	15.33
495.073	16.15
495.417	16.89
495.76	17.65
496.104	18.5
496.448	19.44
496.791	20.29
497.135	21.23
497.479	22.1
497.822	22.95
498.165	23.85
498.509	24.76
498.852	25.81
499.196	26.76
499.539	27.73
499.882	28.68
500.225	29.63
500.568	30.64
500.911	31.48
501.254	32.51
501.597	33.37
501.94	34.25
502.283	35.15
502.626	36.04
502.969	36.92
503.312	37.82
503.654	38.6
503.997	39.47
504.34	40.33
504.682	41.08
505.025	41.8
505.367	42.61
505.71	43.25
506.052	44.06
506.395	44.89
506.737	45.68
507.079	46.49
507.421	47.21
507.764	47.94
508.106	48.62
508.448	49.35
508.79	50.02
509.132	50.72
509.474	51.36
509.816	51.84
510.158	52.46
510.499	53.05
510.841	53.59
511.183	54.11
511.525	54.62
511.866	55.12
512.208	55.55
512.549	55.95
512.891	56.45
513.232	56.99
513.574	57.6
513.915	58.13
514.256	58.67
514.598	59.11
514.939	59.5
515.28	59.9
515.621	60.32
515.962	60.6
516.303	61.02
516.644	61.43
516.985	61.72
517.326	62.08
517.667	62.33
518.008	62.71
518.349	63.15
518.69	63.5
519.03	63.87
519.371	64.32
519.712	64.6
520.052	64.81
520.393	65.07
520.733	65.5
521.074	65.85
521.414	66.18
521.754	66.53
522.095	66.75
522.435	66.86
522.775	67.04
523.115	67.27
523.455	67.39
523.795	67.43
524.135	67.58
524.475	67.81
524.815	68.02
525.155	68.27
525.495	68.56
525.835	68.78
526.175	68.96
526.514	69.12
526.854	69.18
527.194	69.33
527.533	69.53
527.873	69.57
528.212	69.81
528.552	70.11
528.891	70.17
529.23	70.39
529.57	70.62
529.909	70.87
530.248	70.77
530.587	71.01
530.927	71.23
531.266	71.32
531.605	71.4
531.944	71.5
532.283	71.75
532.621	71.76
532.96	71.96
533.299	71.91
533.638	71.93
533.977	71.94
534.315	71.93
534.654	71.93
534.992	71.97
535.331	71.99
535.67	72.05
536.008	72.12
536.346	72.29
536.685	72.26
537.023	72.2
537.361	72.49
537.7	72.6
538.038	72.63
538.376	72.5
538.714	72.84
539.052	72.81
539.39	72.83
539.728	72.77
540.066	72.85
540.404	73.01
540.741	73.16
541.079	73.31
541.417	73.39
541.755	73.63
542.092	73.55
542.43	73.67
542.767	73.72
543.105	73.73
543.442	73.85
543.78	73.96
544.117	74
544.454	74.18
544.792	74.12
545.129	74.22
545.466	74.28
545.803	74.41
546.14	74.31
546.477	74.3
546.814	74.4
547.151	74.15
547.488	74.13
547.825	74.19
548.162	74.41
548.499	74.46
548.835	74.53
549.172	74.66
549.509	74.59
549.845	74.54
550.182	74.43
550.518	74.53
550.855	74.38
551.191	74.34
551.528	74.4
551.864	74.37
552.2	74.43
552.537	74.74
552.873	74.66
553.209	74.75
553.545	74.71
553.881	74.77
554.217	74.62
554.553	74.74
554.889	74.9
555.225	74.81
555.561	74.83
555.896	74.94
556.232	74.88
556.568	74.93
556.903	74.88
557.239	74.78
557.575	74.71
557.91	74.8
558.245	74.75
558.581	74.85
558.916	74.9
559.252	75.09
559.587	75.19
559.922	75.29
560.257	75.54
560.592	75.54
560.928	75.36
561.263	75.41
561.598	75.41
561.933	75.66
562.267	75.78
562.602	75.86
562.937	76.06
563.272	75.97
563.607	76.17
563.941	76.63
564.276	76.69
564.611	76.81
564.945	76.97
565.28	77.17
565.614	77.12
565.949	77.13
566.283	77.23
566.617	77.28
566.951	77.43
567.286	77.48
567.62	77.55
567.954	77.7
568.288	77.66
568.622	77.5
568.956	77.5
569.29	77.7
569.624	77.68
569.958	77.74
570.292	77.7
570.626	77.77
570.959	77.89
571.293	77.7
571.627	77.78
571.96	77.89
572.294	77.87
572.627	77.79
572.961	77.86
573.294	77.8
573.627	77.89
573.961	78.12
574.294	78.14
574.627	78.26
574.961	78.36
575.294	78.37
575.627	78.51
575.96	78.51
576.293	78.3
576.626	78.43
576.959	78.56
577.292	78.68
577.624	78.5
577.957	78.56
578.29	78.63
578.623	78.62
578.955	78.65
579.288	78.57
579.62	78.61
579.953	78.59
580.285	78.51
580.618	78.54
580.95	78.62
581.282	78.7
581.615	78.85
581.947	78.79
582.279	78.76
582.611	78.71
582.943	78.57
583.275	78.53
583.607	78.58
583.939	78.49
584.271	78.45
584.603	78.69
584.935	78.71
585.267	78.67
585.598	78.68
585.93	78.91
586.262	78.92
586.593	78.85
586.925	78.88
587.256	78.8
587.588	78.82
587.919	79.01
588.25	79.08
588.582	79.16
588.913	79.13
589.244	79.32
589.575	79.35
589.907	79.25
590.238	79.17
590.569	79.26
590.9	79.36
591.231	79.46
591.562	79.45
591.892	79.43
592.223	79.37
592.554	79.45
592.885	79.37
593.215	79.38
593.546	79.32
593.877	79.27
594.207	79.01
594.538	78.94
594.868	78.97
595.198	78.87
595.529	78.72
595.859	78.66
596.189	78.65
596.52	78.76
596.85	78.78
597.18	78.76
597.51	78.58
597.84	78.48
598.17	78.54
598.5	78.68
598.83	78.55
599.16	78.5
599.489	78.47
599.819	78.46
600.149	78.38
600.479	78.38
600.808	78.3
601.138	78.31
601.467	78.21
601.797	78.29
602.126	78.24
602.456	78.51
602.785	78.56
603.114	78.36
603.443	78.61
603.773	78.71
604.102	78.87
604.431	78.82
604.76	78.6
605.089	78.47
605.418	78.52
605.747	78.64
606.076	78.62
606.405	78.45
606.733	78.5
607.062	78.52
607.391	78.61
607.72	78.45
608.048	78.51
608.377	78.63
608.705	78.6
609.034	78.63
609.362	78.77
609.69	78.84
610.019	78.76
610.347	78.83
610.675	78.66
611.004	78.67
611.332	78.84
611.66	78.83
611.988	78.9
612.316	78.92
612.644	78.85
612.972	78.92
613.3	79.09
613.627	78.99
613.955	78.93
614.283	78.55
614.611	78.42
614.938	78.36
615.266	78.5
615.593	78.56
615.921	78.64
616.248	78.78
616.576	78.57
616.903	78.6
617.23	78.4
617.558	78.27
617.885	78.29
618.212	78.28
618.539	78.08
618.866	77.93
619.193	77.87
619.52	78.04
619.847	78.23
620.174	78.16
620.501	77.85
620.828	77.68
621.155	77.81
621.481	77.46
621.808	77.21
622.135	76.91
622.461	77.31
622.788	77.58
623.114	77.45
623.441	76.86
623.767	76.68
624.093	76.56
624.42	76.1
624.746	75.99
625.072	75.9
625.398	76.04
625.725	75.95
626.051	75.79
626.377	75.68
626.703	75.87
627.029	76.14
627.354	75.81
627.68	75.37
628.006	74.9
628.332	74.94
628.658	75.08
628.983	75.05
629.309	75.36
629.634	75.47
629.96	75.38
630.285	75.83
630.611	75.81
630.936	76.09
631.262	76.36
631.587	76.6
631.912	76.55
632.237	77.07
632.562	78.09
632.887	78.25
633.213	78.73
633.538	78.9
633.863	79.22
634.187	79.03
634.512	79.09
634.837	78.69
635.162	78.59
635.487	78.94
635.811	79.12
636.136	79.23
636.461	79.28
636.785	78.91
637.11	78.91
637.434	78.37
637.758	78.24
638.083	78.38
638.407	78.42
638.731	78.21
639.056	77.64
639.38	77.47
639.704	78.15
640.028	78.62
640.352	78.8
640.676	78.06
641	77.89
641.324	76.88
641.648	76.8
641.972	76.94
642.295	76.74
642.619	76.68
642.943	76.68
643.266	76.84
643.59	76.58
643.913	76.45
644.237	76.62
644.56	76.04
644.884	76.29
645.207	76.69
645.53	76.71
645.854	76.84
646.177	77.42
646.5	77
646.823	77.15
647.146	76.95
647.469	76.87
647.792	76.1
648.115	75.65
648.438	75.59
648.761	76.98
649.084	77.61
649.406	77.83
649.729	78.05
650.052	78.28
650.374	78.28
650.697	78.4
651.019	78.51
651.342	78.49
651.664	78.55
651.987	78.61
652.309	78.65
652.631	78.78
652.953	78.79
653.276	78.58
653.598	78.57
653.92	78.8
654.242	78.7
654.564	78.81
654.886	78.7
