Data from T2_Reflection__103__20-01-24-144.txt Node

Date: Fri Jun 04 20:01:24 CEST 2021
User: mabdelazizm
Spectrometer: FLMS18565
Trigger mode: 0
Integration Time (sec): 2.000000E0
Scans to average: 1
Electric dark correction enabled: true
Nonlinearity correction enabled: false
Boxcar width: 12
XAxis mode: Wavelengths
Number of Pixels in Spectrum: 2048
>>>>>Begin Spectral Data<<<<<
179.071	-94.72
179.452	-75.16
179.833	-253.78
180.214	-250
180.595	-246.82
180.977	-361.22
181.358	-269.81
181.739	-251.4
182.12	-116.79
182.501	-119.81
182.882	-99.18
183.262	-548.57
183.643	-75.06
184.024	-59.82
184.405	-12.47
184.786	20.24
185.166	14.47
185.547	3.59
185.927	9.86
186.308	0.79
186.689	14.24
187.069	22.21
187.449	13.5
187.83	10.19
188.21	10.64
188.59	10.82
188.971	12.92
189.351	18.67
189.731	19.28
190.111	19.86
190.491	15.49
190.871	12.53
191.251	15.31
191.631	11.94
192.011	12.45
192.391	10.89
192.771	16.04
193.151	14.02
193.531	16.7
193.91	15.6
194.29	13.49
194.67	15.79
195.049	14.69
195.429	13.75
195.808	12.65
196.188	9.85
196.567	6.7
196.946	11.36
197.326	14.56
197.705	13.74
198.084	10.98
198.464	8.98
198.843	6.52
199.222	5.79
199.601	4.81
199.98	3.55
200.359	3.45
200.738	4.12
201.117	1.09
201.496	-2.79
201.875	-1.17
202.254	-3.15
202.632	-3.36
203.011	-2.53
203.39	-0.82
203.768	-0.58
204.147	-1.68
204.525	-2.87
204.904	-5.75
205.282	-4.37
205.661	-4.82
206.039	-2.23
206.418	-6.3
206.796	-4.83
207.174	-5.54
207.552	-6.88
207.931	-7.62
208.309	-5.89
208.687	-4.09
209.065	-0.64
209.443	-1.41
209.821	-2.94
210.199	-2.46
210.577	-1.55
210.954	2.24
211.332	-1.39
211.71	-2.64
212.088	-1.34
212.465	-2.17
212.843	-3.36
213.221	-2.53
213.598	-0.72
213.976	-2.81
214.353	-2.56
214.731	-4.26
215.108	-3.26
215.485	-2.83
215.863	-2.36
216.24	-4.83
216.617	-3.73
216.994	-1.85
217.371	-1.58
217.749	-2.66
218.126	-4.89
218.503	-6.45
218.88	-6.26
219.256	-6.07
219.633	-6.67
220.01	-6.61
220.387	-6.98
220.764	-5.8
221.14	-4.61
221.517	-5.3
221.894	-5.09
222.27	-5.25
222.647	-5.66
223.023	-6
223.4	-5.2
223.776	-4
224.153	-4.07
224.529	-4.23
224.905	-4.1
225.282	-3.62
225.658	-3.31
226.034	-3.36
226.41	-2.96
226.786	-3.03
227.162	-2.65
227.538	-2.39
227.914	-2.39
228.29	-2.11
228.666	-1.96
229.042	-1.9
229.418	-1.53
229.793	-1.46
230.169	-1.28
230.545	-1.42
230.92	-1.18
231.296	-1.09
231.672	-1.05
232.047	-1.04
232.422	-1.04
232.798	-0.8
233.173	-0.93
233.549	-0.67
233.924	-0.6
234.299	-0.59
234.674	-0.51
235.05	-0.59
235.425	-0.61
235.8	-0.66
236.175	-0.52
236.55	-0.48
236.925	-0.39
237.3	-0.31
237.675	-0.18
238.049	-0.18
238.424	-0.22
238.799	-0.13
239.174	-0.13
239.548	-0.13
239.923	-0.11
240.297	-0.22
240.672	-0.24
241.046	-0.2
241.421	-0.13
241.795	-0.12
242.17	-0.22
242.544	-0.2
242.918	-0.22
243.293	-0.18
243.667	-0.26
244.041	-0.26
244.415	-0.21
244.789	-0.18
245.163	-0.15
245.537	-0.13
245.911	-0.11
246.285	-0.17
246.659	-0.15
247.033	-0.18
247.406	-0.14
247.78	-0.12
248.154	-0.22
248.528	-0.15
248.901	-0.18
249.275	-0.18
249.648	-0.07
250.022	-0.08
250.395	-0.07
250.769	-0.15
251.142	-0.09
251.515	-0.04
251.888	-0.03
252.262	-0.02
252.635	-0.04
253.008	-0.02
253.381	-0.04
253.754	-0.03
254.127	-0.01
254.5	-0.03
254.873	-0.06
255.246	-0.07
255.619	-0.02
255.992	-0.03
256.364	-0.07
256.737	-0.06
257.11	-0.04
257.483	0.02
257.855	0.02
258.228	-0.02
258.6	-0.01
258.973	-0.01
259.345	0.07
259.718	0.07
260.09	0.12
260.462	0.03
260.834	0.02
261.207	0.01
261.579	-0.02
261.951	-0.03
262.323	-0.06
262.695	-0.04
263.067	-0.02
263.439	-0
263.811	0.04
264.183	0.06
264.555	0.08
264.927	0.06
265.298	0.06
265.67	0.03
266.042	0.01
266.413	-0
266.785	-0.04
267.156	-0.09
267.528	-0.02
267.899	-0.01
268.271	-0.06
268.642	-0.16
269.013	-0.15
269.385	-0.19
269.756	-0.16
270.127	-0.24
270.498	-0.24
270.87	-0.2
271.241	-0.21
271.612	-0.19
271.983	-0.19
272.354	-0.21
272.724	-0.26
273.095	-0.26
273.466	-0.3
273.837	-0.29
274.208	-0.29
274.578	-0.32
274.949	-0.26
275.32	-0.24
275.69	-0.27
276.061	-0.29
276.431	-0.3
276.802	-0.35
277.172	-0.39
277.542	-0.41
277.913	-0.38
278.283	-0.4
278.653	-0.34
279.023	-0.39
279.394	-0.25
279.764	-0.25
280.134	-0.23
280.504	-0.21
280.874	-0.19
281.244	-0.23
281.614	-0.25
281.983	-0.27
282.353	-0.22
282.723	-0.17
283.093	-0.24
283.462	-0.23
283.832	-0.19
284.202	-0.23
284.571	-0.28
284.941	-0.27
285.31	-0.18
285.68	-0.16
286.049	-0.15
286.418	-0.13
286.788	-0.04
287.157	-0.03
287.526	-0.03
287.895	-0.06
288.264	-0.02
288.633	-0.09
289.002	-0.13
289.371	-0.07
289.74	-0.11
290.109	-0.14
290.478	-0.12
290.847	-0.11
291.216	-0.06
291.585	-0.19
291.953	-0.28
292.322	-0.24
292.691	-0.23
293.059	-0.32
293.428	-0.3
293.796	-0.26
294.165	-0.31
294.533	-0.4
294.901	-0.38
295.27	-0.36
295.638	-0.37
296.006	-0.42
296.374	-0.41
296.743	-0.45
297.111	-0.48
297.479	-0.47
297.847	-0.45
298.215	-0.43
298.583	-0.5
298.95	-0.45
299.318	-0.41
299.686	-0.43
300.054	-0.44
300.422	-0.45
300.789	-0.41
301.157	-0.34
301.525	-0.37
301.892	-0.39
302.26	-0.31
302.627	-0.28
302.994	-0.29
303.362	-0.18
303.729	-0.15
304.097	-0.24
304.464	-0.26
304.831	-0.26
305.198	-0.28
305.565	-0.29
305.932	-0.3
306.299	-0.29
306.666	-0.32
307.033	-0.37
307.4	-0.37
307.767	-0.46
308.134	-0.49
308.501	-0.45
308.867	-0.45
309.234	-0.44
309.601	-0.4
309.967	-0.41
310.334	-0.4
310.701	-0.38
311.067	-0.39
311.433	-0.37
311.8	-0.4
312.166	-0.36
312.533	-0.46
312.899	-0.45
313.265	-0.36
313.631	-0.32
313.997	-0.3
314.363	-0.28
314.729	-0.31
315.096	-0.3
315.461	-0.3
315.827	-0.25
316.193	-0.2
316.559	-0.19
316.925	-0.15
317.291	-0.14
317.656	-0.2
318.022	-0.24
318.388	-0.19
318.753	-0.28
319.119	-0.28
319.484	-0.29
319.85	-0.27
320.215	-0.28
320.581	-0.29
320.946	-0.27
321.311	-0.34
321.676	-0.32
322.042	-0.29
322.407	-0.37
322.772	-0.36
323.137	-0.36
323.502	-0.33
323.867	-0.29
324.232	-0.28
324.597	-0.28
324.962	-0.27
325.327	-0.27
325.691	-0.26
326.056	-0.29
326.421	-0.3
326.785	-0.33
327.15	-0.32
327.514	-0.37
327.879	-0.36
328.243	-0.36
328.608	-0.37
328.972	-0.41
329.337	-0.43
329.701	-0.48
330.065	-0.55
330.429	-0.5
330.794	-0.49
331.158	-0.53
331.522	-0.54
331.886	-0.6
332.25	-0.65
332.614	-0.73
332.978	-0.77
333.342	-0.76
333.705	-0.8
334.069	-0.87
334.433	-0.92
334.797	-0.93
335.16	-0.92
335.524	-0.88
335.887	-0.8
336.251	-0.8
336.614	-0.79
336.978	-0.74
337.341	-0.74
337.705	-0.76
338.068	-0.68
338.431	-0.7
338.794	-0.72
339.158	-0.69
339.521	-0.7
339.884	-0.75
340.247	-0.76
340.61	-0.73
340.973	-0.7
341.336	-0.68
341.699	-0.69
342.062	-0.66
342.424	-0.72
342.787	-0.65
343.15	-0.64
343.512	-0.62
343.875	-0.64
344.238	-0.57
344.6	-0.61
344.963	-0.64
345.325	-0.63
345.688	-0.68
346.05	-0.75
346.412	-0.71
346.775	-0.74
347.137	-0.81
347.499	-0.8
347.861	-0.81
348.223	-0.8
348.585	-0.83
348.947	-0.83
349.309	-0.84
349.671	-0.81
350.033	-0.84
350.395	-0.85
350.757	-0.83
351.118	-0.9
351.48	-0.86
351.842	-0.87
352.203	-0.84
352.565	-0.88
352.927	-0.84
353.288	-0.88
353.65	-0.89
354.011	-0.84
354.372	-0.81
354.734	-0.75
355.095	-0.71
355.456	-0.75
355.817	-0.7
356.179	-0.73
356.54	-0.67
356.901	-0.66
357.262	-0.69
357.623	-0.67
357.984	-0.55
358.345	-0.52
358.705	-0.6
359.066	-0.59
359.427	-0.57
359.788	-0.59
360.148	-0.53
360.509	-0.51
360.87	-0.49
361.23	-0.51
361.591	-0.42
361.951	-0.5
362.312	-0.46
362.672	-0.44
363.032	-0.52
363.393	-0.51
363.753	-0.55
364.113	-0.6
364.473	-0.6
364.833	-0.64
365.193	-0.63
365.553	-0.66
365.913	-0.61
366.273	-0.65
366.633	-0.63
366.993	-0.75
367.353	-0.85
367.713	-0.81
368.072	-0.83
368.432	-0.77
368.792	-0.82
369.151	-0.84
369.511	-0.84
369.87	-0.83
370.23	-0.78
370.589	-0.82
370.949	-0.81
371.308	-0.84
371.667	-0.9
372.027	-0.89
372.386	-0.92
372.745	-0.91
373.104	-0.87
373.463	-0.87
373.822	-0.87
374.181	-0.83
374.54	-0.82
374.899	-0.8
375.258	-0.8
375.617	-0.83
375.975	-0.84
376.334	-0.75
376.693	-0.68
377.052	-0.66
377.41	-0.69
377.769	-0.64
378.127	-0.62
378.486	-0.71
378.844	-0.79
379.202	-0.82
379.561	-0.86
379.919	-0.82
380.277	-0.8
380.636	-0.77
380.994	-0.77
381.352	-0.8
381.71	-0.78
382.068	-0.72
382.426	-0.75
382.784	-0.74
383.142	-0.76
383.5	-0.76
383.857	-0.76
384.215	-0.73
384.573	-0.73
384.931	-0.67
385.288	-0.75
385.646	-0.82
386.003	-0.84
386.361	-0.84
386.718	-0.84
387.076	-0.83
387.433	-0.78
387.791	-0.77
388.148	-0.8
388.505	-0.82
388.862	-0.86
389.22	-0.86
389.577	-0.86
389.934	-0.9
390.291	-0.86
390.648	-0.89
391.005	-1
391.362	-1.04
391.718	-1.06
392.075	-1.1
392.432	-1.07
392.789	-1.11
393.145	-1.1
393.502	-1.1
393.859	-1.12
394.215	-1.05
394.572	-1.06
394.928	-1.05
395.285	-1.07
395.641	-1.1
395.997	-1.1
396.354	-1.13
396.71	-1.1
397.066	-1.07
397.422	-1.01
397.778	-0.99
398.134	-1
398.491	-1.05
398.846	-1.01
399.202	-1
399.558	-1.03
399.914	-0.96
400.27	-0.94
400.626	-0.88
400.981	-0.89
401.337	-0.88
401.693	-0.8
402.048	-0.8
402.404	-0.81
402.759	-0.82
403.115	-0.8
403.47	-0.81
403.826	-0.77
404.181	-0.82
404.536	-0.84
404.892	-0.85
405.247	-0.77
405.602	-0.81
405.957	-0.79
406.312	-0.81
406.667	-0.79
407.022	-0.81
407.377	-0.71
407.732	-0.69
408.087	-0.73
408.442	-0.72
408.796	-0.74
409.151	-0.74
409.506	-0.73
409.86	-0.73
410.215	-0.77
410.57	-0.87
410.924	-0.84
411.279	-0.87
411.633	-0.88
411.987	-0.91
412.342	-0.88
412.696	-0.9
413.05	-0.83
413.404	-0.84
413.758	-0.76
414.113	-0.8
414.467	-0.77
414.821	-0.81
415.175	-0.71
415.529	-0.76
415.882	-0.78
416.236	-0.83
416.59	-0.89
416.944	-0.88
417.298	-0.77
417.651	-0.78
418.005	-0.75
418.358	-0.76
418.712	-0.72
419.065	-0.74
419.419	-0.78
419.772	-0.86
420.126	-0.71
420.479	-0.68
420.832	-0.74
421.185	-0.66
421.539	-0.69
421.892	-0.71
422.245	-0.64
422.598	-0.65
422.951	-0.6
423.304	-0.57
423.657	-0.63
424.01	-0.73
424.363	-0.7
424.715	-0.61
425.068	-0.61
425.421	-0.54
425.773	-0.53
426.126	-0.53
426.479	-0.57
426.831	-0.55
427.184	-0.6
427.536	-0.54
427.889	-0.49
428.241	-0.41
428.593	-0.38
428.945	-0.4
429.298	-0.32
429.65	-0.25
430.002	-0.25
430.354	-0.18
430.706	-0.13
431.058	-0.13
431.41	-0.2
431.762	-0.32
432.114	-0.34
432.466	-0.25
432.817	-0.18
433.169	-0.18
433.521	-0.24
433.872	-0.2
434.224	-0.29
434.576	-0.3
434.927	-0.35
435.279	-0.31
435.63	-0.32
435.981	-0.29
436.333	-0.3
436.684	-0.25
437.035	-0.26
437.387	-0.27
437.738	-0.31
438.089	-0.4
438.44	-0.41
438.791	-0.49
439.142	-0.54
439.493	-0.51
439.844	-0.52
440.195	-0.45
440.545	-0.36
440.896	-0.31
441.247	-0.34
441.598	-0.36
441.948	-0.35
442.299	-0.35
442.649	-0.39
443	-0.33
443.35	-0.32
443.701	-0.27
444.051	-0.29
444.401	-0.35
444.752	-0.36
445.102	-0.45
445.452	-0.59
445.802	-0.64
446.152	-0.63
446.502	-0.61
446.852	-0.62
447.202	-0.67
447.552	-0.67
447.902	-0.64
448.252	-0.76
448.602	-0.23
448.952	-0.27
449.301	-0.26
449.651	-0.32
450.001	-0.28
450.35	-0.32
450.7	-0.3
451.049	-0.23
451.399	-0.15
451.748	-0.17
452.097	-0.03
452.447	-0.16
452.796	-0.09
453.145	0.06
453.494	0.07
453.843	0.17
454.193	0.3
454.542	0.31
454.891	0.4
455.239	0.31
455.588	0.42
455.937	0.47
456.286	0.54
456.635	0.51
456.984	0.57
457.332	0.02
457.681	-0.01
458.03	0.06
458.378	0.1
458.727	0.11
459.075	0.2
459.423	0.32
459.772	0.31
460.12	0.23
460.468	0.33
460.817	0.3
461.165	0.4
461.513	0.49
461.861	0.43
462.209	0.51
462.557	0.53
462.905	0.52
463.253	0.55
463.601	0.55
463.949	0.55
464.297	0.48
464.644	0.55
464.992	0.52
465.34	0.5
465.687	0.58
466.035	0.53
466.383	0.62
466.73	0.48
467.078	0.49
467.425	0.52
467.772	0.47
468.12	0.33
468.467	0.27
468.814	0.38
469.161	0.37
469.508	0.39
469.856	0.37
470.203	0.26
470.55	0.23
470.897	0.19
471.243	0.11
471.59	0.17
471.937	0.26
472.284	0.21
472.631	0.19
472.977	0.19
473.324	0.21
473.671	0.09
474.017	0.05
474.364	-0.04
474.71	0.02
475.057	0.01
475.403	0.05
475.749	0.02
476.096	-0.05
476.442	0.02
476.788	-0.02
477.134	0
477.48	-0.04
477.826	-0.09
478.172	-0.22
478.518	-0.2
478.864	-0.14
479.21	0.01
479.556	-0.01
479.902	0.07
480.248	0.09
480.593	0.07
480.939	0.04
481.285	0.1
481.63	0.12
481.976	0.16
482.321	0.28
482.667	0.39
483.012	0.43
483.357	0.49
483.703	0.55
484.048	0.69
484.393	0.82
484.738	0.93
485.084	0.93
485.429	1.03
485.774	1.07
486.119	1.16
486.464	1.31
486.808	1.5
487.153	1.62
487.498	1.75
487.843	1.74
488.188	1.94
488.532	2.11
488.877	2.31
489.222	2.58
489.566	2.88
489.911	3.23
490.255	3.54
490.6	3.79
490.944	4.05
491.288	4.36
491.633	4.84
491.977	5.16
492.321	5.55
492.665	5.9
493.009	6.26
493.353	6.73
493.697	7.17
494.041	7.64
494.385	8.21
494.729	8.74
495.073	9.35
495.417	9.93
495.76	10.5
496.104	11.07
496.448	11.82
496.791	12.54
497.135	13.23
497.479	13.96
497.822	14.68
498.165	15.4
498.509	16.11
498.852	16.92
499.196	17.75
499.539	18.63
499.882	19.45
500.225	20.25
500.568	21.08
500.911	21.9
501.254	22.77
501.597	23.68
501.94	24.55
502.283	25.48
502.626	26.42
502.969	27.26
503.312	28.1
503.654	28.88
503.997	29.73
504.34	30.61
504.682	31.48
505.025	32.3
505.367	33.08
505.71	33.83
506.052	34.54
506.395	35.35
506.737	36.19
507.079	37.07
507.421	37.92
507.764	38.75
508.106	39.52
508.448	40.3
508.79	41.05
509.132	41.81
509.474	42.52
509.816	43.17
510.158	43.92
510.499	44.57
510.841	45.17
511.183	45.76
511.525	46.37
511.866	47.01
512.208	47.71
512.549	48.36
512.891	49.03
513.232	49.79
513.574	50.49
513.915	51.05
514.256	51.75
514.598	52.53
514.939	53.04
515.28	53.41
515.621	53.95
515.962	54.42
516.303	54.93
516.644	55.46
516.985	55.9
517.326	56.4
517.667	56.87
518.008	57.27
518.349	57.79
518.69	58.26
519.03	58.85
519.371	59.31
519.712	59.81
520.052	60.2
520.393	60.55
520.733	60.82
521.074	61.28
521.414	61.71
521.754	61.96
522.095	62.27
522.435	62.7
522.775	63.07
523.115	63.44
523.455	63.73
523.795	64.27
524.135	64.61
524.475	64.85
524.815	65.25
525.155	65.71
525.495	66.19
525.835	66.38
526.175	66.67
526.514	67.14
526.854	67.34
527.194	67.46
527.533	67.47
527.873	67.67
528.212	67.85
528.552	68.3
528.891	68.64
529.23	68.98
529.57	69.15
529.909	69.44
530.248	69.52
530.587	69.82
530.927	69.96
531.266	70.03
531.605	70.01
531.944	70.14
532.283	70.27
532.621	70.28
532.96	70.77
533.299	70.84
533.638	70.8
533.977	70.83
534.315	71.17
534.654	71.33
534.992	71.4
535.331	71.47
535.67	71.73
536.008	71.98
536.346	72.15
536.685	72.15
537.023	72.02
537.361	72.22
537.7	72.37
538.038	72.39
538.376	72.34
538.714	72.72
539.052	72.62
539.39	72.75
539.728	72.81
540.066	73.04
540.404	73.45
540.741	73.58
541.079	73.81
541.417	73.72
541.755	73.73
542.092	73.65
542.43	73.59
542.767	73.53
543.105	73.38
543.442	73.4
543.78	73.6
544.117	73.71
544.454	73.77
544.792	73.9
545.129	74.17
545.466	74.21
545.803	74.17
546.14	74.13
546.477	74.13
546.814	74.18
547.151	73.93
547.488	73.87
547.825	73.96
548.162	74.12
548.499	74.13
548.835	74
549.172	74.18
549.509	74.15
549.845	74.28
550.182	74.33
550.518	74.53
550.855	74.7
551.191	74.69
551.528	74.95
551.864	75.07
552.2	74.95
552.537	74.93
552.873	75.14
553.209	75.36
553.545	75.27
553.881	75.49
554.217	75.54
554.553	75.73
554.889	76
555.225	75.96
555.561	76.04
555.896	76.33
556.232	76.3
556.568	76.41
556.903	76.52
557.239	76.5
557.575	76.53
557.91	76.68
558.245	76.66
558.581	76.8
558.916	76.95
559.252	77.05
559.587	77.15
559.922	77.24
560.257	77.46
560.592	77.69
560.928	77.85
561.263	77.77
561.598	77.67
561.933	77.81
562.267	77.96
562.602	78
562.937	78.07
563.272	78.11
563.607	78.3
563.941	78.76
564.276	78.84
564.611	79.09
564.945	79.21
565.28	79.29
565.614	79.25
565.949	79.22
566.283	79.28
566.617	79.36
566.951	79.61
567.286	79.87
567.62	79.94
567.954	80.04
568.288	80.06
568.622	80.04
568.956	79.97
569.29	79.99
569.624	80.07
569.958	80.1
570.292	80.06
570.626	80.13
570.959	80.32
571.293	80.36
571.627	80.56
571.96	80.59
572.294	80.49
572.627	80.49
572.961	80.47
573.294	80.55
573.627	80.59
573.961	80.72
574.294	80.76
574.627	80.91
574.961	81.11
575.294	80.96
575.627	81.03
575.96	80.98
576.293	80.88
576.626	80.92
576.959	80.89
577.292	81.03
577.624	81
577.957	80.98
578.29	81.06
578.623	81.2
578.955	81.18
579.288	81.08
579.62	81.12
579.953	80.93
580.285	80.94
580.618	81.09
580.95	81.17
581.282	81.27
581.615	81.31
581.947	81.26
582.279	81.33
582.611	81.3
582.943	81.15
583.275	81.02
583.607	81.15
583.939	80.99
584.271	80.96
584.603	81.04
584.935	81.08
585.267	81.16
585.598	81.16
585.93	81.38
586.262	81.43
586.593	81.43
586.925	81.36
587.256	81.31
587.588	81.29
587.919	81.18
588.25	81.27
588.582	81.34
588.913	81.28
589.244	81.33
589.575	81.26
589.907	81.09
590.238	81.13
590.569	81.1
590.9	81.32
591.231	81.38
591.562	81.26
591.892	81.18
592.223	81.24
592.554	81.5
592.885	81.6
593.215	81.58
593.546	81.47
593.877	81.33
594.207	81.21
594.538	81.12
594.868	81.09
595.198	81.01
595.529	80.95
595.859	80.98
596.189	81.17
596.52	81.3
596.85	81.43
597.18	81.37
597.51	81.32
597.84	81.33
598.17	81.38
598.5	81.22
598.83	81.22
599.16	81.08
599.489	81.09
599.819	81.15
600.149	81.1
600.479	81.02
600.808	80.74
601.138	80.53
601.467	80.5
601.797	80.72
602.126	80.91
602.456	80.94
602.785	81
603.114	80.94
603.443	81.08
603.773	81.25
604.102	81.28
604.431	81.16
604.76	81.02
605.089	80.76
605.418	80.75
605.747	80.68
606.076	80.71
606.405	80.58
606.733	80.68
607.062	80.77
607.391	80.84
607.72	80.6
608.048	80.61
608.377	80.65
608.705	80.69
609.034	80.7
609.362	80.96
609.69	81.02
610.019	80.71
610.347	80.71
610.675	80.64
611.004	80.75
611.332	80.95
611.66	81
611.988	80.81
612.316	80.89
612.644	80.81
612.972	80.83
613.3	80.94
613.627	81.01
613.955	81.09
614.283	80.91
614.611	80.9
614.938	81.05
615.266	80.99
615.593	81.02
615.921	81.2
616.248	81.2
616.576	81.1
616.903	81.17
617.23	81.32
617.558	81.2
617.885	81.15
618.212	80.99
618.539	80.88
618.866	80.42
619.193	80.2
619.52	79.93
619.847	79.89
620.174	80.02
620.501	79.74
620.828	79.89
621.155	79.82
621.481	79.59
621.808	79.39
622.135	79.29
622.461	79.18
622.788	79.35
623.114	79.28
623.441	78.8
623.767	78.64
624.093	78.48
624.42	78.25
624.746	78.69
625.072	78.48
625.398	78.67
625.725	78.78
626.051	78.48
626.377	78.69
626.703	78.1
627.029	78.7
627.354	78.54
627.68	78.32
628.006	78.12
628.332	78.12
628.658	78.12
628.983	77.88
629.309	78
629.634	78.21
629.96	78
630.285	77.89
630.611	77.97
630.936	78.06
631.262	78.58
631.587	79.28
631.912	79.77
632.237	80.28
632.562	81.04
632.887	80.82
633.213	80.82
633.538	80.88
633.863	80.76
634.187	80.82
634.512	80.86
634.837	81.15
635.162	80.7
635.487	81.09
635.811	81.82
636.136	82.2
636.461	82.12
636.785	82.46
637.11	82.89
637.434	82.4
637.758	82.31
638.083	82.26
638.407	82.56
638.731	82.6
639.056	82.36
639.38	81.82
639.704	82.12
640.028	81.75
640.352	81.75
640.676	81.15
641	80.63
641.324	80.48
641.648	79.68
641.972	80.27
642.295	80.1
642.619	80.43
642.943	80.47
643.266	80.63
643.59	80.32
643.913	79.75
644.237	79.93
644.56	79.7
644.884	79.53
645.207	79.45
645.53	79.74
645.854	80.13
646.177	80.56
646.5	80.63
646.823	81.09
647.146	81.13
647.469	80.69
647.792	80.09
648.115	79.75
648.438	79.65
648.761	82.57
649.084	83.69
649.406	83.97
649.729	83.04
650.052	82.28
650.374	82.01
