Data from T2_Reflection__41__19-17-52-228.txt Node

Date: Fri Jun 04 19:17:52 CEST 2021
User: mabdelazizm
Spectrometer: FLMS18565
Trigger mode: 0
Integration Time (sec): 2.000000E0
Scans to average: 1
Electric dark correction enabled: true
Nonlinearity correction enabled: false
Boxcar width: 12
XAxis mode: Wavelengths
Number of Pixels in Spectrum: 2048
>>>>>Begin Spectral Data<<<<<
179.071	-27.27
179.452	-32.38
179.833	-152.82
180.214	-167.31
180.595	-196.06
180.977	-379.85
181.358	-333.16
181.739	-251.96
182.12	-126.87
182.501	-169
182.882	-181.21
183.262	-751.43
183.643	-151.55
184.024	-70.51
184.405	-17.52
184.786	7.12
185.166	-11.7
185.547	11.42
185.927	17.48
186.308	1.02
186.689	8.45
187.069	12.38
187.449	4.32
187.83	-3.32
188.21	-2.65
188.59	2.71
188.971	8.16
189.351	13.26
189.731	12.94
190.111	14.2
190.491	15.59
190.871	13.98
191.251	13.47
191.631	10.81
192.011	13.49
192.391	15.83
192.771	15.96
193.151	16.76
193.531	11.97
193.91	13.05
194.29	11.42
194.67	13.14
195.049	10.16
195.429	10.68
195.808	12.42
196.188	8.38
196.567	7.64
196.946	12.06
197.326	11.27
197.705	11.59
198.084	8.2
198.464	8.31
198.843	8.99
199.222	10.74
199.601	12.8
199.98	12.82
200.359	11.78
200.738	11.04
201.117	7.37
201.496	3.76
201.875	2.06
202.254	3.57
202.632	1.57
203.011	4.45
203.39	4.51
203.768	6.17
204.147	6.58
204.525	6.6
204.904	4.95
205.282	6.46
205.661	2.52
206.039	4.48
206.418	3.71
206.796	7.36
207.174	6.74
207.552	7.15
207.931	5.62
208.309	6.39
208.687	7.49
209.065	7.17
209.443	6.15
209.821	5.85
210.199	5.88
210.577	6.36
210.954	9.89
211.332	9.13
211.71	7.24
212.088	7.73
212.465	9.13
212.843	8.78
213.221	10.23
213.598	10.36
213.976	10.47
214.353	8.87
214.731	7.74
215.108	10.39
215.485	9.45
215.863	8.62
216.24	6.75
216.617	7.04
216.994	6.79
217.371	7.33
217.749	5.79
218.126	3.68
218.503	3.31
218.88	2.09
219.256	1.09
219.633	1.81
220.01	2.41
220.387	1.21
220.764	1.28
221.14	2.39
221.517	1.96
221.894	0.38
222.27	-0.45
222.647	-1.47
223.023	-2.25
223.4	-2.52
223.776	-1.33
224.153	-2.14
224.529	-2.04
224.905	-1.23
225.282	-1.16
225.658	-0.88
226.034	-1.01
226.41	-0.77
226.786	-1.61
227.162	-1.49
227.538	-1.32
227.914	-1.28
228.29	-1.27
228.666	-0.73
229.042	-0.78
229.418	-0.48
229.793	-0.67
230.169	-0.59
230.545	-0.77
230.92	-0.77
231.296	-0.55
231.672	-0.62
232.047	-0.69
232.422	-0.59
232.798	-0.35
233.173	-0.48
233.549	-0.21
233.924	-0.06
234.299	-0.16
234.674	-0.24
235.05	-0.26
235.425	-0.25
235.8	-0.25
236.175	-0.04
236.55	0.07
236.925	-0.03
237.3	-0.07
237.675	0.09
238.049	0.03
238.424	0.03
238.799	0.15
239.174	0.27
239.548	0.34
239.923	0.39
240.297	0.44
240.672	0.49
241.046	0.57
241.421	0.66
241.795	0.6
242.17	0.55
242.544	0.57
242.918	0.49
243.293	0.46
243.667	0.38
244.041	0.48
244.415	0.52
244.789	0.48
245.163	0.45
245.537	0.44
245.911	0.46
246.285	0.51
246.659	0.58
247.033	0.56
247.406	0.57
247.78	0.56
248.154	0.46
248.528	0.49
248.901	0.49
249.275	0.45
249.648	0.5
250.022	0.44
250.395	0.41
250.769	0.35
251.142	0.38
251.515	0.33
251.888	0.32
252.262	0.43
252.635	0.43
253.008	0.41
253.381	0.36
253.754	0.33
254.127	0.35
254.5	0.41
254.873	0.39
255.246	0.36
255.619	0.37
255.992	0.35
256.364	0.37
256.737	0.38
257.11	0.36
257.483	0.36
257.855	0.38
258.228	0.34
258.6	0.39
258.973	0.41
259.345	0.5
259.718	0.53
260.09	0.53
260.462	0.5
260.834	0.51
261.207	0.5
261.579	0.43
261.951	0.41
262.323	0.44
262.695	0.43
263.067	0.49
263.439	0.51
263.811	0.51
264.183	0.52
264.555	0.5
264.927	0.5
265.298	0.49
265.67	0.44
266.042	0.44
266.413	0.45
266.785	0.45
267.156	0.44
267.528	0.41
267.899	0.37
268.271	0.36
268.642	0.23
269.013	0.25
269.385	0.29
269.756	0.32
270.127	0.3
270.498	0.3
270.87	0.32
271.241	0.31
271.612	0.3
271.983	0.33
272.354	0.27
272.724	0.25
273.095	0.23
273.466	0.22
273.837	0.24
274.208	0.21
274.578	0.15
274.949	0.21
275.32	0.19
275.69	0.18
276.061	0.16
276.431	0.09
276.802	0.1
277.172	0.11
277.542	0.05
277.913	0.1
278.283	0.07
278.653	0.07
279.023	0.06
279.394	0.1
279.764	0.11
280.134	0.13
280.504	0.18
280.874	0.21
281.244	0.21
281.614	0.22
281.983	0.19
282.353	0.22
282.723	0.24
283.093	0.21
283.462	0.24
283.832	0.31
284.202	0.27
284.571	0.28
284.941	0.25
285.31	0.32
285.68	0.4
286.049	0.35
286.418	0.34
286.788	0.39
287.157	0.4
287.526	0.44
287.895	0.42
288.264	0.44
288.633	0.41
289.002	0.38
289.371	0.37
289.74	0.31
290.109	0.25
290.478	0.22
290.847	0.23
291.216	0.24
291.585	0.17
291.953	0.1
292.322	0.1
292.691	0.06
293.059	-0.03
293.428	-0.03
293.796	-0
294.165	0.03
294.533	-0.02
294.901	-0.06
295.27	-0.02
295.638	-0.02
296.006	-0.08
296.374	-0.1
296.743	-0.16
297.111	-0.13
297.479	-0.13
297.847	-0.12
298.215	-0.15
298.583	-0.16
298.95	-0.12
299.318	-0.07
299.686	-0.08
300.054	-0.09
300.422	-0.09
300.789	-0.07
301.157	-0.02
301.525	-0.02
301.892	0
302.26	0.06
302.627	0.12
302.994	0.07
303.362	0.11
303.729	0.13
304.097	0.1
304.464	0.08
304.831	0.1
305.198	0.09
305.565	0.08
305.932	0.1
306.299	0.03
306.666	-0
307.033	-0.02
307.4	0.01
307.767	-0.03
308.134	-0.08
308.501	-0.09
308.867	-0.09
309.234	-0.07
309.601	-0.05
309.967	-0.07
310.334	-0.06
310.701	-0.07
311.067	-0.07
311.433	-0.02
311.8	-0.11
312.166	-0.1
312.533	-0.19
312.899	-0.19
313.265	-0.14
313.631	-0.07
313.997	-0.06
314.363	-0.07
314.729	-0.07
315.096	-0.07
315.461	-0.09
315.827	-0.06
316.193	-0.05
316.559	0.01
316.925	0.07
317.291	0.07
317.656	0.04
318.022	0.05
318.388	0.06
318.753	0.06
319.119	0.06
319.484	0.08
319.85	0.09
320.215	0.09
320.581	0.04
320.946	0.09
321.311	0.07
321.676	0.07
322.042	0.08
322.407	0.01
322.772	-0.04
323.137	-0.02
323.502	0.01
323.867	0.03
324.232	0
324.597	0
324.962	-0.01
325.327	-0.01
325.691	-0.02
326.056	-0.08
326.421	-0.03
326.785	0
327.15	-0.02
327.514	-0.07
327.879	-0.09
328.243	-0.08
328.608	-0.11
328.972	-0.1
329.337	-0.17
329.701	-0.16
330.065	-0.14
330.429	-0.11
330.794	-0.05
331.158	-0.07
331.522	-0.07
331.886	-0.07
332.25	-0.17
332.614	-0.2
332.978	-0.2
333.342	-0.21
333.705	-0.21
334.069	-0.22
334.433	-0.27
334.797	-0.28
335.16	-0.29
335.524	-0.32
335.887	-0.31
336.251	-0.28
336.614	-0.27
336.978	-0.22
337.341	-0.23
337.705	-0.21
338.068	-0.2
338.431	-0.16
338.794	-0.19
339.158	-0.23
339.521	-0.27
339.884	-0.35
340.247	-0.37
340.61	-0.33
340.973	-0.34
341.336	-0.3
341.699	-0.35
342.062	-0.42
342.424	-0.38
342.787	-0.4
343.15	-0.42
343.512	-0.38
343.875	-0.38
344.238	-0.36
344.6	-0.42
344.963	-0.44
345.325	-0.47
345.688	-0.5
346.05	-0.51
346.412	-0.48
346.775	-0.51
347.137	-0.53
347.499	-0.55
347.861	-0.53
348.223	-0.55
348.585	-0.57
348.947	-0.5
349.309	-0.52
349.671	-0.48
350.033	-0.5
350.395	-0.48
350.757	-0.42
351.118	-0.45
351.48	-0.49
351.842	-0.45
352.203	-0.43
352.565	-0.44
352.927	-0.46
353.288	-0.48
353.65	-0.47
354.011	-0.46
354.372	-0.42
354.734	-0.46
355.095	-0.48
355.456	-0.46
355.817	-0.49
356.179	-0.48
356.54	-0.46
356.901	-0.51
357.262	-0.5
357.623	-0.45
357.984	-0.42
358.345	-0.34
358.705	-0.42
359.066	-0.44
359.427	-0.47
359.788	-0.46
360.148	-0.36
360.509	-0.29
360.87	-0.23
361.23	-0.24
361.591	-0.22
361.951	-0.28
362.312	-0.29
362.672	-0.2
363.032	-0.17
363.393	-0.16
363.753	-0.16
364.113	-0.16
364.473	-0.19
364.833	-0.12
365.193	-0.16
365.553	-0.14
365.913	-0.15
366.273	-0.14
366.633	-0.17
366.993	-0.25
367.353	-0.35
367.713	-0.32
368.072	-0.3
368.432	-0.26
368.792	-0.27
369.151	-0.31
369.511	-0.35
369.87	-0.42
370.23	-0.32
370.589	-0.26
370.949	-0.16
371.308	-0.2
371.667	-0.23
372.027	-0.28
372.386	-0.36
372.745	-0.32
373.104	-0.32
373.463	-0.32
373.822	-0.3
374.181	-0.26
374.54	-0.24
374.899	-0.18
375.258	-0.23
375.617	-0.23
375.975	-0.21
376.334	-0.15
376.693	-0.1
377.052	-0.1
377.41	-0.15
377.769	-0.14
378.127	-0.1
378.486	-0.1
378.844	-0.1
379.202	-0.2
379.561	-0.32
379.919	-0.36
380.277	-0.34
380.636	-0.4
380.994	-0.43
381.352	-0.41
381.71	-0.47
382.068	-0.52
382.426	-0.55
382.784	-0.58
383.142	-0.61
383.5	-0.68
383.857	-0.63
384.215	-0.56
384.573	-0.6
384.931	-0.61
385.288	-0.68
385.646	-0.71
386.003	-0.64
386.361	-0.62
386.718	-0.61
387.076	-0.7
387.433	-0.7
387.791	-0.7
388.148	-0.68
388.505	-0.64
388.862	-0.65
389.22	-0.65
389.577	-0.59
389.934	-0.58
390.291	-0.56
390.648	-0.51
391.005	-0.48
391.362	-0.49
391.718	-0.57
392.075	-0.6
392.432	-0.54
392.789	-0.62
393.145	-0.63
393.502	-0.59
393.859	-0.53
394.215	-0.46
394.572	-0.52
394.928	-0.6
395.285	-0.66
395.641	-0.68
395.997	-0.59
396.354	-0.54
396.71	-0.52
397.066	-0.58
397.422	-0.53
397.778	-0.57
398.134	-0.51
398.491	-0.6
398.846	-0.62
399.202	-0.63
399.558	-0.73
399.914	-0.64
400.27	-0.64
400.626	-0.63
400.981	-0.6
401.337	-0.62
401.693	-0.59
402.048	-0.62
402.404	-0.56
402.759	-0.58
403.115	-0.58
403.47	-0.53
403.826	-0.52
404.181	-0.53
404.536	-0.54
404.892	-0.65
405.247	-0.71
405.602	-0.75
405.957	-0.68
406.312	-0.73
406.667	-0.66
407.022	-0.7
407.377	-0.62
407.732	-0.57
408.087	-0.61
408.442	-0.51
408.796	-0.56
409.151	-0.52
409.506	-0.5
409.86	-0.53
410.215	-0.56
410.57	-0.64
410.924	-0.55
411.279	-0.56
411.633	-0.59
411.987	-0.6
412.342	-0.6
412.696	-0.58
413.05	-0.45
413.404	-0.41
413.758	-0.34
414.113	-0.31
414.467	-0.28
414.821	-0.29
415.175	-0.25
415.529	-0.36
415.882	-0.34
416.236	-0.38
416.59	-0.35
416.944	-0.34
417.298	-0.34
417.651	-0.39
418.005	-0.39
418.358	-0.34
418.712	-0.28
419.065	-0.31
419.419	-0.26
419.772	-0.37
420.126	-0.33
420.479	-0.28
420.832	-0.35
421.185	-0.3
421.539	-0.33
421.892	-0.37
422.245	-0.35
422.598	-0.34
422.951	-0.31
423.304	-0.36
423.657	-0.38
424.01	-0.38
424.363	-0.33
424.715	-0.37
425.068	-0.37
425.421	-0.41
425.773	-0.38
426.126	-0.31
426.479	-0.32
426.831	-0.31
427.184	-0.37
427.536	-0.35
427.889	-0.31
428.241	-0.29
428.593	-0.25
428.945	-0.28
429.298	-0.26
429.65	-0.2
430.002	-0.24
430.354	-0.14
430.706	-0.2
431.058	-0.19
431.41	-0.14
431.762	-0.22
432.114	-0.15
432.466	-0.18
432.817	-0.12
433.169	-0.01
433.521	0.05
433.872	0.16
434.224	0.21
434.576	0.23
434.927	0.14
435.279	0.13
435.63	0.11
435.981	0.18
436.333	0.2
436.684	0.24
437.035	0.23
437.387	0.19
437.738	0.17
438.089	0.12
438.44	0.11
438.791	0.06
439.142	0.03
439.493	0.08
439.844	-0
440.195	-0
440.545	0.04
440.896	0.04
441.247	0.1
441.598	-0.01
441.948	-0.06
442.299	-0.12
442.649	-0.2
443	-0.25
443.35	-0.25
443.701	-0.21
444.051	-0.17
444.401	-0.22
444.752	-0.3
445.102	-0.39
445.452	-0.4
445.802	-0.39
446.152	-0.35
446.502	-0.37
446.852	-0.36
447.202	-0.35
447.552	-0.34
447.902	-0.38
448.252	-0.42
448.602	-0.85
448.952	-0.94
449.301	-0.89
449.651	-0.92
450.001	-0.88
450.35	-0.88
450.7	-0.89
451.049	-0.77
451.399	-0.69
451.748	-0.73
452.097	-0.6
452.447	-0.67
452.796	-0.62
453.145	-0.49
453.494	-0.49
453.843	-0.44
454.193	-0.37
454.542	-0.4
454.891	-0.34
455.239	-0.41
455.588	-0.4
455.937	-0.39
456.286	-0.35
456.635	-0.38
456.984	-0.34
457.332	0.22
457.681	0.29
458.03	0.3
458.378	0.27
458.727	0.26
459.075	0.31
459.423	0.44
459.772	0.37
460.12	0.21
460.468	0.28
460.817	0.26
461.165	0.25
461.513	0.21
461.861	0.15
462.209	0.3
462.557	0.45
462.905	0.37
463.253	0.39
463.601	0.43
463.949	0.49
464.297	0.48
464.644	0.52
464.992	0.44
465.34	0.47
465.687	0.5
466.035	0.44
466.383	0.44
466.73	0.37
467.078	0.36
467.425	0.34
467.772	0.41
468.12	0.29
468.467	0.29
468.814	0.44
469.161	0.43
469.508	0.39
469.856	0.51
470.203	0.48
470.55	0.41
470.897	0.38
471.243	0.2
471.59	0.25
471.937	0.24
472.284	0.19
472.631	0.16
472.977	0.27
473.324	0.29
473.671	0.28
474.017	0.39
474.364	0.36
474.71	0.45
475.057	0.43
475.403	0.45
475.749	0.52
476.096	0.57
476.442	0.51
476.788	0.51
477.134	0.53
477.48	0.5
477.826	0.5
478.172	0.44
478.518	0.43
478.864	0.54
479.21	0.67
479.556	0.6
479.902	0.69
480.248	0.73
480.593	0.74
480.939	0.66
481.285	0.68
481.63	0.62
481.976	0.62
482.321	0.68
482.667	0.74
483.012	0.75
483.357	0.8
483.703	0.89
484.048	0.98
484.393	1.04
484.738	1.08
485.084	1.09
485.429	1.13
485.774	1.2
486.119	1.3
486.464	1.36
486.808	1.48
487.153	1.6
487.498	1.67
487.843	1.7
488.188	1.91
488.532	2.05
488.877	2.23
489.222	2.49
489.566	2.81
489.911	3.17
490.255	3.5
490.6	3.86
490.944	4.2
491.288	4.47
491.633	4.91
491.977	5.21
492.321	5.62
492.665	6
493.009	6.45
493.353	6.94
493.697	7.52
494.041	8.12
494.385	8.67
494.729	9.21
495.073	9.84
495.417	10.51
495.76	11.23
496.104	11.97
496.448	12.73
496.791	13.47
497.135	14.27
497.479	15
497.822	15.8
498.165	16.65
498.509	17.42
498.852	18.3
499.196	19.13
499.539	20.02
499.882	20.9
500.225	21.73
500.568	22.66
500.911	23.49
501.254	24.47
501.597	25.36
501.94	26.27
502.283	27.13
502.626	27.99
502.969	28.88
503.312	29.69
503.654	30.6
503.997	31.4
504.34	32.12
504.682	32.91
505.025	33.71
505.367	34.51
505.71	35.12
506.052	35.9
506.395	36.73
506.737	37.54
507.079	38.35
507.421	39.06
507.764	39.74
508.106	40.41
508.448	41.14
508.79	41.79
509.132	42.51
509.474	43.22
509.816	43.82
510.158	44.5
510.499	45.06
510.841	45.63
511.183	46.27
511.525	46.85
511.866	47.59
512.208	48.15
512.549	48.72
512.891	49.39
513.232	50.02
513.574	50.6
513.915	51.12
514.256	51.83
514.598	52.44
514.939	52.85
515.28	53.3
515.621	53.93
515.962	54.41
516.303	55.06
516.644	55.64
516.985	56.09
517.326	56.64
517.667	57.07
518.008	57.5
518.349	57.98
518.69	58.53
519.03	58.99
519.371	59.5
519.712	59.82
520.052	60.2
520.393	60.37
520.733	60.78
521.074	61.21
521.414	61.55
521.754	61.85
522.095	62.32
522.435	62.67
522.775	63.08
523.115	63.48
523.455	63.79
523.795	63.99
524.135	64.18
524.475	64.44
524.815	64.71
525.155	65.04
525.495	65.45
525.835	65.71
526.175	65.93
526.514	66.26
526.854	66.52
527.194	66.62
527.533	66.88
527.873	67.16
528.212	67.5
528.552	67.82
528.891	68.16
529.23	68.38
529.57	68.66
529.909	69.04
530.248	69.07
530.587	69.33
530.927	69.59
531.266	69.7
531.605	69.83
531.944	69.93
532.283	70.22
532.621	70.3
532.96	70.62
533.299	70.71
533.638	70.83
533.977	70.85
534.315	70.96
534.654	71.1
534.992	71.23
535.331	71.2
535.67	71.33
536.008	71.41
536.346	71.61
536.685	71.49
537.023	71.57
537.361	71.86
537.7	72.09
538.038	72.15
538.376	72.16
538.714	72.61
539.052	72.59
539.39	72.78
539.728	72.78
540.066	72.9
540.404	73.19
540.741	73.3
541.079	73.5
541.417	73.48
541.755	73.58
542.092	73.56
542.43	73.62
542.767	73.77
543.105	73.76
543.442	73.8
543.78	73.99
544.117	73.99
544.454	74.18
544.792	74.21
545.129	74.6
545.466	74.75
545.803	74.73
546.14	74.59
546.477	74.6
546.814	74.61
547.151	74.37
547.488	74.43
547.825	74.29
548.162	74.44
548.499	74.56
548.835	74.64
549.172	74.72
549.509	74.73
549.845	75.03
550.182	74.92
550.518	74.94
550.855	75.04
551.191	75.15
551.528	75.44
551.864	75.47
552.2	75.45
552.537	75.64
552.873	75.73
553.209	75.86
553.545	75.71
553.881	75.62
554.217	75.55
554.553	75.7
554.889	75.85
555.225	76.04
555.561	76.21
555.896	76.24
556.232	76.31
556.568	76.35
556.903	76.26
557.239	76.24
557.575	76.34
557.91	76.41
558.245	76.24
558.581	76.42
558.916	76.53
559.252	76.6
559.587	76.62
559.922	76.65
560.257	76.86
560.592	76.98
560.928	77.01
561.263	77.08
561.598	76.98
561.933	77.16
562.267	77.24
562.602	77.45
562.937	77.7
563.272	77.91
563.607	77.84
563.941	78.11
564.276	78.26
564.611	78.62
564.945	78.91
565.28	79.29
565.614	79.22
565.949	79.36
566.283	79.43
566.617	79.61
566.951	79.98
567.286	80.18
567.62	80.18
567.954	80.27
568.288	80.37
568.622	80.27
568.956	80.26
569.29	80.47
569.624	80.42
569.958	80.47
570.292	80.56
570.626	80.76
570.959	80.78
571.293	80.73
571.627	80.77
571.96	80.79
572.294	80.84
572.627	80.78
572.961	80.71
573.294	80.63
573.627	80.59
573.961	80.71
574.294	80.72
574.627	80.86
574.961	80.94
575.294	80.82
575.627	80.87
575.96	80.99
576.293	80.85
576.626	80.85
576.959	80.97
577.292	81.11
577.624	80.95
577.957	80.94
578.29	80.99
578.623	80.95
578.955	80.87
579.288	80.84
579.62	80.77
579.953	80.62
580.285	80.66
580.618	80.67
580.95	80.85
581.282	80.91
581.615	81
581.947	80.91
582.279	81.05
582.611	80.96
582.943	80.87
583.275	80.78
583.607	80.81
583.939	80.64
584.271	80.57
584.603	80.75
584.935	80.76
585.267	80.73
585.598	80.71
585.93	80.88
586.262	81.02
586.593	81.05
586.925	81.12
587.256	81.11
587.588	81.18
587.919	81.39
588.25	81.62
588.582	81.74
588.913	81.77
589.244	81.86
589.575	81.97
589.907	81.98
590.238	81.99
590.569	81.9
590.9	82.05
591.231	81.99
591.562	82.01
591.892	81.99
592.223	82.18
592.554	82.23
592.885	82.23
593.215	82.29
593.546	82.25
593.877	82.18
594.207	82.07
594.538	82.07
594.868	82.04
595.198	81.98
595.529	81.97
595.859	81.83
596.189	81.93
596.52	81.92
596.85	81.93
597.18	81.85
597.51	81.74
597.84	81.68
598.17	81.69
598.5	81.65
598.83	81.75
599.16	81.89
599.489	82.02
599.819	81.96
600.149	81.89
600.479	81.75
600.808	81.6
601.138	81.53
601.467	81.44
601.797	81.56
602.126	81.55
602.456	81.71
602.785	81.72
603.114	81.66
603.443	81.66
603.773	81.61
604.102	81.73
604.431	81.55
604.76	81.4
605.089	81.35
605.418	81.31
605.747	81.16
606.076	81.08
606.405	80.95
606.733	81.04
607.062	80.8
607.391	80.63
607.72	80.38
608.048	80.35
608.377	80.3
608.705	80.46
609.034	80.52
609.362	80.53
609.69	80.56
610.019	80.33
610.347	80.35
610.675	80.2
611.004	80.09
611.332	80.19
611.66	80.32
611.988	80.37
612.316	80.61
612.644	80.54
612.972	80.62
613.3	80.49
613.627	80.5
613.955	80.69
614.283	80.61
614.611	80.6
614.938	80.84
615.266	80.88
615.593	81
615.921	81.16
616.248	81.37
616.576	81.65
616.903	81.58
617.23	81.37
617.558	81.53
617.885	81.46
618.212	81.24
618.539	81.28
618.866	80.98
619.193	80.98
619.52	80.99
619.847	81.05
620.174	81.07
620.501	80.86
620.828	80.98
621.155	80.95
621.481	80.96
621.808	80.91
622.135	80.64
622.461	80.61
622.788	80.69
623.114	80.33
623.441	79.99
623.767	79.76
624.093	79.67
624.42	79.35
624.746	79.32
625.072	79.34
625.398	79.8
625.725	79.77
626.051	79.62
626.377	80.19
626.703	79.96
627.029	80.32
627.354	80.03
627.68	79.8
628.006	79.67
628.332	79.67
628.658	79.65
628.983	79.19
629.309	79.2
629.634	79.15
629.96	78.87
630.285	78.88
630.611	78.71
630.936	78.99
631.262	79.61
631.587	80.19
631.912	80.53
632.237	81.33
632.562	82.46
632.887	82.55
633.213	82.57
633.538	82.95
633.863	82.39
634.187	82.43
634.512	82.06
634.837	82.25
635.162	82.04
635.487	82.13
635.811	82.49
636.136	82.63
636.461	82.78
636.785	82.46
637.11	82.96
637.434	83.06
637.758	83.19
638.083	83.06
638.407	83.32
638.731	83.59
639.056	82.64
639.38	82.19
639.704	82.2
640.028	81.84
640.352	80.98
640.676	80.48
641	80.19
641.324	79.93
641.648	79.51
641.972	80.1
642.295	79.9
642.619	80.44
642.943	80.33
643.266	80.33
643.59	80.79
643.913	80.41
644.237	80.14
644.56	79.46
644.884	79.83
645.207	79.83
645.53	79.88
645.854	80.01
646.177	80.83
646.5	80.82
646.823	80.88
647.146	81.7
647.469	81.5
647.792	81.72
648.115	81.55
648.438	81.99
648.761	83.42
649.084	83.62
649.406	83.53
649.729	82.61
650.052	82.39
650.374	82.28
650.697	82.14
651.019	82.17
651.342	82.18
651.664	82.23
651.987	82.3
652.309	82.21
652.631	82.44
652.953	82.55
653.276	82.38
653.598	82.24
653.92	82.33
654.242	82.31
654.564	82.26
654.886	82.12
