Data from T2_Reflection__30__19-09-18-245.txt Node

Date: Fri Jun 04 19:09:18 CEST 2021
User: mabdelazizm
Spectrometer: FLMS18565
Trigger mode: 0
Integration Time (sec): 2.000000E0
Scans to average: 1
Electric dark correction enabled: true
Nonlinearity correction enabled: false
Boxcar width: 12
XAxis mode: Wavelengths
Number of Pixels in Spectrum: 2048
>>>>>Begin Spectral Data<<<<<
179.071	28.66
179.452	31.34
179.833	-54.62
180.214	-53.85
180.595	-81.63
180.977	-149.43
181.358	-202.97
181.739	-179.33
182.12	-89.82
182.501	-131.24
182.882	-194.05
183.262	-797.14
183.643	-161.41
184.024	-125.74
184.405	-63.39
184.786	-56.18
185.166	-74.72
185.547	-35.79
185.927	-16.94
186.308	-21.65
186.689	-13.56
187.069	-14.34
187.449	-18.54
187.83	-25.25
188.21	-32.05
188.59	-23.57
188.971	-25.51
189.351	-14.03
189.731	-13.56
190.111	-10.47
190.491	-7.21
190.871	-7.46
191.251	-6.33
191.631	-5.83
192.011	-3.31
192.391	-0.83
192.771	3.44
193.151	2.58
193.531	4.49
193.91	6.63
194.29	7.5
194.67	8.07
195.049	3.63
195.429	3.28
195.808	2.7
196.188	-0
196.567	1.67
196.946	7.4
197.326	9.34
197.705	10.47
198.084	4.09
198.464	2.92
198.843	3.19
199.222	0.76
199.601	-0.74
199.98	-2.81
200.359	-0.41
200.738	0.62
201.117	-2.46
201.496	-5.96
201.875	-3.88
202.254	-4.74
202.632	-4.77
203.011	-2.76
203.39	-5.05
203.768	-2.08
204.147	-0.42
204.525	-0.75
204.904	-1.73
205.282	-0.52
205.661	-1.93
206.039	-1.04
206.418	-5.37
206.796	-2.58
207.174	-3.18
207.552	-0.64
207.931	-0.6
208.309	-1.77
208.687	0.11
209.065	3.14
209.443	3.59
209.821	1
210.199	-1.23
210.577	-0.06
210.954	3.67
211.332	1.5
211.71	0.53
212.088	0.72
212.465	-1.04
212.843	-0.77
213.221	-0.7
213.598	-0.93
213.976	-1.58
214.353	-3.18
214.731	-5.63
215.108	-4.88
215.485	-4.62
215.863	-4.31
216.24	-5.69
216.617	-5.19
216.994	-5.9
217.371	-4.79
217.749	-4.5
218.126	-4.62
218.503	-5.39
218.88	-4.75
219.256	-4.65
219.633	-3.29
220.01	-3.24
220.387	-4.1
220.764	-3.5
221.14	-2.95
221.517	-2.65
221.894	-2.61
222.27	-2.33
222.647	-3.25
223.023	-3.07
223.4	-2.85
223.776	-1.46
224.153	-1.65
224.529	-1.24
224.905	-1.26
225.282	-1.08
225.658	-1.4
226.034	-1.46
226.41	-0.95
226.786	-1.41
227.162	-1.29
227.538	-1
227.914	-0.96
228.29	-1.09
228.666	-0.79
229.042	-1.02
229.418	-0.9
229.793	-0.7
230.169	-0.59
230.545	-0.69
230.92	-0.59
231.296	-0.59
231.672	-0.6
232.047	-0.44
232.422	-0.35
232.798	0.02
233.173	-0.02
233.549	0.29
233.924	0.35
234.299	0.4
234.674	0.41
235.05	0.42
235.425	0.42
235.8	0.5
236.175	0.69
236.55	0.78
236.925	0.8
237.3	0.81
237.675	0.93
238.049	0.95
238.424	0.99
238.799	1.12
239.174	1.16
239.548	1.15
239.923	1.27
240.297	1.16
240.672	1.17
241.046	1.25
241.421	1.22
241.795	1.21
242.17	1.11
242.544	1.18
242.918	1.05
243.293	1.05
243.667	1.06
244.041	1.17
244.415	1.19
244.789	1.27
245.163	1.25
245.537	1.24
245.911	1.25
246.285	1.24
246.659	1.27
247.033	1.25
247.406	1.25
247.78	1.29
248.154	1.19
248.528	1.23
248.901	1.22
249.275	1.2
249.648	1.33
250.022	1.28
250.395	1.25
250.769	1.24
251.142	1.28
251.515	1.27
251.888	1.21
252.262	1.24
252.635	1.24
253.008	1.21
253.381	1.11
253.754	1.1
254.127	1.07
254.5	1.04
254.873	1
255.246	0.97
255.619	1
255.992	0.97
256.364	0.95
256.737	0.93
257.11	0.92
257.483	0.97
257.855	0.94
258.228	0.99
258.6	0.94
258.973	0.89
259.345	0.99
259.718	0.99
260.09	0.98
260.462	0.93
260.834	0.93
261.207	0.98
261.579	1.01
261.951	1.02
262.323	1.01
262.695	1.06
263.067	1.09
263.439	1.11
263.811	1.17
264.183	1.19
264.555	1.22
264.927	1.18
265.298	1.21
265.67	1.2
266.042	1.23
266.413	1.22
266.785	1.16
267.156	1.11
267.528	1.1
267.899	1.12
268.271	1.13
268.642	1.01
269.013	1.01
269.385	1.02
269.756	1.03
270.127	0.99
270.498	0.94
270.87	0.93
271.241	0.91
271.612	0.91
271.983	0.9
272.354	0.85
272.724	0.84
273.095	0.78
273.466	0.78
273.837	0.77
274.208	0.77
274.578	0.73
274.949	0.74
275.32	0.75
275.69	0.7
276.061	0.77
276.431	0.8
276.802	0.73
277.172	0.67
277.542	0.68
277.913	0.75
278.283	0.74
278.653	0.78
279.023	0.73
279.394	0.79
279.764	0.8
280.134	0.82
280.504	0.83
280.874	0.83
281.244	0.81
281.614	0.81
281.983	0.77
282.353	0.8
282.723	0.85
283.093	0.82
283.462	0.8
283.832	0.83
284.202	0.83
284.571	0.77
284.941	0.8
285.31	0.83
285.68	0.84
286.049	0.81
286.418	0.87
286.788	0.89
287.157	0.89
287.526	0.9
287.895	0.86
288.264	0.92
288.633	0.9
289.002	0.83
289.371	0.85
289.74	0.84
290.109	0.82
290.478	0.75
290.847	0.78
291.216	0.77
291.585	0.73
291.953	0.63
292.322	0.63
292.691	0.63
293.059	0.57
293.428	0.55
293.796	0.61
294.165	0.6
294.533	0.53
294.901	0.53
295.27	0.6
295.638	0.57
296.006	0.51
296.374	0.49
296.743	0.51
297.111	0.49
297.479	0.45
297.847	0.44
298.215	0.46
298.583	0.38
298.95	0.37
299.318	0.39
299.686	0.39
300.054	0.39
300.422	0.44
300.789	0.42
301.157	0.43
301.525	0.43
301.892	0.46
302.26	0.45
302.627	0.48
302.994	0.45
303.362	0.45
303.729	0.51
304.097	0.46
304.464	0.4
304.831	0.43
305.198	0.4
305.565	0.42
305.932	0.36
306.299	0.33
306.666	0.29
307.033	0.27
307.4	0.33
307.767	0.31
308.134	0.29
308.501	0.3
308.867	0.37
309.234	0.36
309.601	0.34
309.967	0.33
310.334	0.38
310.701	0.37
311.067	0.37
311.433	0.42
311.8	0.32
312.166	0.32
312.533	0.26
312.899	0.21
313.265	0.23
313.631	0.29
313.997	0.26
314.363	0.28
314.729	0.26
315.096	0.23
315.461	0.25
315.827	0.28
316.193	0.31
316.559	0.3
316.925	0.34
317.291	0.37
317.656	0.36
318.022	0.29
318.388	0.35
318.753	0.32
319.119	0.35
319.484	0.38
319.85	0.33
320.215	0.3
320.581	0.29
320.946	0.34
321.311	0.33
321.676	0.37
322.042	0.35
322.407	0.35
322.772	0.36
323.137	0.36
323.502	0.36
323.867	0.38
324.232	0.36
324.597	0.38
324.962	0.39
325.327	0.37
325.691	0.38
326.056	0.36
326.421	0.35
326.785	0.33
327.15	0.35
327.514	0.28
327.879	0.26
328.243	0.3
328.608	0.27
328.972	0.33
329.337	0.29
329.701	0.27
330.065	0.31
330.429	0.35
330.794	0.36
331.158	0.39
331.522	0.4
331.886	0.36
332.25	0.36
332.614	0.38
332.978	0.36
333.342	0.41
333.705	0.39
334.069	0.37
334.433	0.37
334.797	0.34
335.16	0.33
335.524	0.33
335.887	0.35
336.251	0.35
336.614	0.34
336.978	0.38
337.341	0.31
337.705	0.27
338.068	0.25
338.431	0.29
338.794	0.27
339.158	0.24
339.521	0.22
339.884	0.17
340.247	0.16
340.61	0.13
340.973	0.16
341.336	0.15
341.699	0.12
342.062	0.11
342.424	0.07
342.787	0.07
343.15	0.07
343.512	0.08
343.875	0.05
344.238	0.08
344.6	0.02
344.963	0.01
345.325	0.05
345.688	0.04
346.05	0.04
346.412	0.09
346.775	0.1
347.137	0.11
347.499	0.1
347.861	0.15
348.223	0.14
348.585	0.17
348.947	0.14
349.309	0.09
349.671	0.12
350.033	0.07
350.395	0.06
350.757	0.02
351.118	-0.05
351.48	-0.05
351.842	-0.1
352.203	-0.11
352.565	-0.12
352.927	-0.09
353.288	-0.11
353.65	-0.08
354.011	-0.09
354.372	-0.07
354.734	-0.09
355.095	-0.13
355.456	-0.15
355.817	-0.16
356.179	-0.21
356.54	-0.22
356.901	-0.25
357.262	-0.21
357.623	-0.27
357.984	-0.17
358.345	-0.11
358.705	-0.17
359.066	-0.16
359.427	-0.13
359.788	-0.11
360.148	-0.06
360.509	0
360.87	0.11
361.23	0.08
361.591	0.09
361.951	0.12
362.312	0.15
362.672	0.15
363.032	0.16
363.393	0.15
363.753	0.15
364.113	0.14
364.473	0.15
364.833	0.18
365.193	0.16
365.553	0.22
365.913	0.23
366.273	0.17
366.633	0.21
366.993	0.14
367.353	0.02
367.713	0.04
368.072	0.03
368.432	-0.01
368.792	-0.05
369.151	-0.05
369.511	-0.08
369.87	-0.17
370.23	-0.09
370.589	-0.07
370.949	-0.08
371.308	-0.16
371.667	-0.19
372.027	-0.19
372.386	-0.23
372.745	-0.17
373.104	-0.16
373.463	-0.2
373.822	-0.26
374.181	-0.25
374.54	-0.28
374.899	-0.26
375.258	-0.25
375.617	-0.27
375.975	-0.23
376.334	-0.19
376.693	-0.12
377.052	-0.08
377.41	-0.04
377.769	0.01
378.127	0.02
378.486	-0.02
378.844	0.01
379.202	0
379.561	-0.02
379.919	-0.05
380.277	-0
380.636	0.03
380.994	0
381.352	-0.04
381.71	-0.12
382.068	-0.07
382.426	-0
382.784	0.05
383.142	0.05
383.5	0.04
383.857	0.02
384.215	0.04
384.573	-0.02
384.931	-0.06
385.288	-0.06
385.646	-0.14
386.003	-0.22
386.361	-0.24
386.718	-0.23
387.076	-0.24
387.433	-0.21
387.791	-0.19
388.148	-0.19
388.505	-0.24
388.862	-0.23
389.22	-0.21
389.577	-0.19
389.934	-0.16
390.291	-0.08
390.648	-0.02
391.005	-0.04
391.362	-0.19
391.718	-0.21
392.075	-0.22
392.432	-0.23
392.789	-0.25
393.145	-0.27
393.502	-0.19
393.859	-0.16
394.215	-0.08
394.572	-0.07
394.928	-0.04
395.285	-0.07
395.641	-0.11
395.997	-0.1
396.354	-0.09
396.71	-0.05
397.066	-0.08
397.422	0
397.778	0.03
398.134	0.03
398.491	-0.08
398.846	-0.11
399.202	-0.11
399.558	-0.19
399.914	-0.15
400.27	-0.04
400.626	-0.06
400.981	-0.03
401.337	0.03
401.693	0.02
402.048	-0.06
402.404	-0.12
402.759	-0.07
403.115	-0.13
403.47	-0.14
403.826	-0.09
404.181	-0.1
404.536	-0.06
404.892	-0.08
405.247	-0.15
405.602	-0.21
405.957	-0.2
406.312	-0.23
406.667	-0.26
407.022	-0.27
407.377	-0.18
407.732	-0.2
408.087	-0.27
408.442	-0.22
408.796	-0.29
409.151	-0.27
409.506	-0.19
409.86	-0.21
410.215	-0.28
410.57	-0.26
410.924	-0.11
411.279	-0.09
411.633	-0.2
411.987	-0.19
412.342	-0.13
412.696	-0.18
413.05	-0.14
413.404	-0.13
413.758	-0.09
414.113	-0.05
414.467	-0
414.821	-0.05
415.175	-0.03
415.529	-0.08
415.882	-0.09
416.236	-0.11
416.59	-0.06
416.944	-0.01
417.298	0.05
417.651	0.07
418.005	0.08
418.358	0.03
418.712	0.08
419.065	0.08
419.419	0.09
419.772	0.02
420.126	0.1
420.479	0.18
420.832	0.18
421.185	0.25
421.539	0.29
421.892	0.34
422.245	0.33
422.598	0.43
422.951	0.45
423.304	0.39
423.657	0.43
424.01	0.46
424.363	0.52
424.715	0.54
425.068	0.5
425.421	0.52
425.773	0.55
426.126	0.6
426.479	0.65
426.831	0.63
427.184	0.61
427.536	0.61
427.889	0.67
428.241	0.69
428.593	0.74
428.945	0.72
429.298	0.67
429.65	0.69
430.002	0.63
430.354	0.67
430.706	0.69
431.058	0.71
431.41	0.56
431.762	0.53
432.114	0.57
432.466	0.61
432.817	0.56
433.169	0.57
433.521	0.59
433.872	0.74
434.224	0.69
434.576	0.7
434.927	0.62
435.279	0.57
435.63	0.59
435.981	0.66
436.333	0.68
436.684	0.74
437.035	0.71
437.387	0.7
437.738	0.67
438.089	0.71
438.44	0.72
438.791	0.68
439.142	0.64
439.493	0.56
439.844	0.58
440.195	0.71
440.545	0.79
440.896	0.79
441.247	0.8
441.598	0.84
441.948	0.88
442.299	0.85
442.649	0.83
443	0.82
443.35	0.74
443.701	0.79
444.051	0.74
444.401	0.7
444.752	0.67
445.102	0.65
445.452	0.54
445.802	0.57
446.152	0.64
446.502	0.65
446.852	0.65
447.202	0.63
447.552	0.66
447.902	0.64
448.252	0.59
448.602	0.94
448.952	0.91
449.301	0.92
449.651	0.99
450.001	0.96
450.35	0.92
450.7	0.93
451.049	0.95
451.399	0.98
451.748	1.06
452.097	1.22
452.447	1.18
452.796	1.29
453.145	1.43
453.494	1.46
453.843	1.45
454.193	1.5
454.542	1.5
454.891	1.48
455.239	1.41
455.588	1.52
455.937	1.49
456.286	1.53
456.635	1.57
456.984	1.66
457.332	1.26
457.681	1.26
458.03	1.28
458.378	1.2
458.727	1.16
459.075	1.2
459.423	1.28
459.772	1.31
460.12	1.25
460.468	1.28
460.817	1.29
461.165	1.29
461.513	1.27
461.861	1.17
462.209	1.21
462.557	1.36
462.905	1.37
463.253	1.35
463.601	1.39
463.949	1.44
464.297	1.41
464.644	1.54
464.992	1.54
465.34	1.5
465.687	1.54
466.035	1.49
466.383	1.52
466.73	1.43
467.078	1.38
467.425	1.41
467.772	1.49
468.12	1.45
468.467	1.43
468.814	1.42
469.161	1.4
469.508	1.46
469.856	1.48
470.203	1.45
470.55	1.45
470.897	1.47
471.243	1.31
471.59	1.3
471.937	1.37
472.284	1.29
472.631	1.22
472.977	1.24
473.324	1.27
473.671	1.17
474.017	1.21
474.364	1.11
474.71	1.16
475.057	1.1
475.403	1.13
475.749	1.24
476.096	1.25
476.442	1.18
476.788	1.14
477.134	1.21
477.48	1.24
477.826	1.24
478.172	1.1
478.518	1.19
478.864	1.23
479.21	1.28
479.556	1.23
479.902	1.33
480.248	1.4
480.593	1.32
480.939	1.35
481.285	1.47
481.63	1.44
481.976	1.46
482.321	1.52
482.667	1.6
483.012	1.73
483.357	1.85
483.703	1.95
484.048	2.05
484.393	2.14
484.738	2.2
485.084	2.28
485.429	2.34
485.774	2.35
486.119	2.48
486.464	2.59
486.808	2.7
487.153	2.82
487.498	2.99
487.843	3.11
488.188	3.34
488.532	3.56
488.877	3.73
489.222	4.02
489.566	4.3
489.911	4.67
490.255	5.02
490.6	5.33
490.944	5.7
491.288	6.06
491.633	6.44
491.977	6.76
492.321	7.29
492.665	7.72
493.009	8.13
493.353	8.63
493.697	9.15
494.041	9.7
494.385	10.31
494.729	10.8
495.073	11.38
495.417	12
495.76	12.59
496.104	13.24
496.448	13.92
496.791	14.6
497.135	15.32
497.479	16.05
497.822	16.78
498.165	17.5
498.509	18.16
498.852	18.97
499.196	19.76
499.539	20.52
499.882	21.25
500.225	22.04
500.568	22.78
500.911	23.39
501.254	24.1
501.597	24.9
501.94	25.66
502.283	26.3
502.626	27.12
502.969	27.77
503.312	28.48
503.654	29.21
503.997	29.96
504.34	30.7
504.682	31.36
505.025	32.04
505.367	32.67
505.71	33.21
506.052	33.79
506.395	34.45
506.737	35.14
507.079	35.84
507.421	36.52
507.764	37.11
508.106	37.66
508.448	38.3
508.79	38.79
509.132	39.35
509.474	39.91
509.816	40.42
510.158	40.87
510.499	41.39
510.841	41.97
511.183	42.36
511.525	42.76
511.866	43.26
512.208	43.71
512.549	44.14
512.891	44.51
513.232	45.04
513.574	45.52
513.915	45.92
514.256	46.43
514.598	46.95
514.939	47.33
515.28	47.59
515.621	47.85
515.962	48.02
516.303	48.41
516.644	48.76
516.985	49.07
517.326	49.48
517.667	49.86
518.008	50.17
518.349	50.61
518.69	51
519.03	51.29
519.371	51.68
519.712	51.98
520.052	52.42
520.393	52.53
520.733	52.81
521.074	53.2
521.414	53.62
521.754	53.83
522.095	53.99
522.435	54.32
522.775	54.52
523.115	54.73
523.455	54.89
523.795	55.04
524.135	55.3
524.475	55.61
524.815	55.89
525.155	56.35
525.495	56.5
525.835	56.62
526.175	56.77
526.514	57
526.854	57.1
527.194	57.2
527.533	57.33
527.873	57.44
528.212	57.56
528.552	57.8
528.891	58.05
529.23	58.09
529.57	58.19
529.909	58.3
530.248	58.32
530.587	58.69
530.927	58.83
531.266	58.95
531.605	59.08
531.944	59.14
532.283	59.38
532.621	59.36
532.96	59.59
533.299	59.51
533.638	59.45
533.977	59.55
534.315	59.78
534.654	59.91
534.992	60
535.331	60.06
535.67	60.31
536.008	60.43
536.346	60.53
536.685	60.47
537.023	60.44
537.361	60.61
537.7	60.78
538.038	60.83
538.376	60.84
538.714	61.07
539.052	60.95
539.39	61.06
539.728	60.99
540.066	60.96
540.404	61.17
540.741	61.31
541.079	61.43
541.417	61.41
541.755	61.53
542.092	61.51
542.43	61.48
542.767	61.35
543.105	61.36
543.442	61.35
543.78	61.45
544.117	61.44
544.454	61.45
544.792	61.41
545.129	61.6
545.466	61.68
545.803	61.68
546.14	61.75
546.477	61.75
546.814	61.8
547.151	61.59
547.488	61.58
547.825	61.49
548.162	61.52
548.499	61.53
548.835	61.61
549.172	61.69
549.509	61.66
549.845	61.64
550.182	61.62
550.518	61.66
550.855	61.79
551.191	61.94
551.528	62
551.864	62.13
552.2	62.13
552.537	62
552.873	62.12
553.209	62.21
553.545	62.29
553.881	62.36
554.217	62.36
554.553	62.47
554.889	62.58
555.225	62.66
555.561	62.78
555.896	62.87
556.232	62.93
556.568	63.14
556.903	63.25
557.239	63.29
557.575	63.34
557.91	63.56
558.245	63.53
558.581	63.7
558.916	63.78
559.252	63.89
559.587	63.9
559.922	63.98
560.257	64.02
560.592	63.99
560.928	64.08
561.263	64.18
561.598	64.16
561.933	64.17
562.267	64.12
562.602	64.2
562.937	64.39
563.272	64.38
563.607	64.31
563.941	64.55
564.276	64.66
564.611	64.74
564.945	64.97
565.28	65.08
565.614	64.92
565.949	64.97
566.283	64.98
566.617	65.04
566.951	65.19
567.286	65.37
567.62	65.44
567.954	65.41
568.288	65.42
568.622	65.37
568.956	65.59
569.29	65.69
569.624	65.52
569.958	65.61
570.292	65.71
570.626	65.87
570.959	66
571.293	65.97
571.627	66.17
571.96	66.18
572.294	66.17
572.627	66.19
572.961	66.22
573.294	66.16
573.627	66.34
573.961	66.41
574.294	66.35
574.627	66.61
574.961	66.75
575.294	66.67
575.627	66.79
575.96	66.68
576.293	66.57
576.626	66.61
576.959	66.81
577.292	66.75
577.624	66.75
577.957	66.91
578.29	66.97
578.623	66.9
578.955	66.88
579.288	66.83
579.62	66.68
579.953	66.53
580.285	66.66
580.618	66.69
580.95	66.68
581.282	66.76
581.615	66.86
581.947	66.65
582.279	66.79
582.611	66.9
582.943	66.61
583.275	66.62
583.607	66.69
583.939	66.51
584.271	66.62
584.603	66.92
584.935	66.84
585.267	66.67
585.598	66.85
585.93	66.97
586.262	66.99
586.593	67.03
586.925	67.08
587.256	66.97
587.588	66.9
587.919	67.01
588.25	67.09
588.582	67.1
588.913	67.24
589.244	67.35
589.575	67.44
589.907	67.36
590.238	67.41
590.569	67.46
590.9	67.53
591.231	67.72
591.562	67.56
591.892	67.51
592.223	67.57
592.554	67.67
592.885	67.65
593.215	67.75
593.546	67.58
593.877	67.4
594.207	67.29
594.538	67.23
594.868	67.2
595.198	67.23
595.529	67.18
595.859	67.19
596.189	67.36
596.52	67.47
596.85	67.5
597.18	67.3
597.51	67.2
597.84	67.02
598.17	67.05
598.5	67.1
598.83	67.07
599.16	67.03
599.489	66.93
599.819	66.99
600.149	66.98
600.479	66.95
600.808	66.78
601.138	66.66
601.467	66.6
601.797	66.82
602.126	66.74
602.456	66.81
602.785	66.89
603.114	66.73
603.443	66.79
603.773	66.91
604.102	67.06
604.431	66.98
604.76	66.83
605.089	66.61
605.418	66.6
605.747	66.54
606.076	66.61
606.405	66.49
606.733	66.5
607.062	66.47
607.391	66.44
607.72	66.34
608.048	66.34
608.377	66.47
608.705	66.41
609.034	66.38
609.362	66.56
609.69	66.58
610.019	66.58
610.347	66.68
610.675	66.7
611.004	66.62
611.332	66.83
611.66	66.88
611.988	66.84
612.316	66.83
612.644	66.85
612.972	66.84
613.3	67.1
613.627	67.12
613.955	67.27
614.283	67.01
614.611	66.98
614.938	67.06
615.266	66.98
615.593	66.94
615.921	67.14
616.248	67.27
616.576	66.99
616.903	67.02
617.23	67.01
617.558	66.98
617.885	67.03
618.212	66.85
618.539	66.86
618.866	66.34
619.193	66.22
619.52	66.01
619.847	65.94
620.174	65.9
620.501	65.81
620.828	65.74
621.155	66.07
621.481	65.7
621.808	65.64
622.135	65.46
622.461	65.64
622.788	65.77
623.114	65.54
623.441	65.21
623.767	65.21
624.093	65.14
624.42	64.72
624.746	65.04
625.072	65.17
625.398	65.51
625.725	65.16
626.051	65.18
626.377	65.44
626.703	65.15
627.029	65.54
627.354	65.45
627.68	65.11
628.006	65
628.332	65.04
628.658	65.04
628.983	64.7
629.309	64.16
629.634	64.2
629.96	63.96
630.285	64.1
630.611	63.94
630.936	63.98
631.262	64.15
631.587	64.5
631.912	64.51
632.237	64.57
632.562	65.63
632.887	65.36
633.213	65
633.538	64.92
633.863	65.11
634.187	65.16
634.512	65.01
634.837	65.07
635.162	65.02
635.487	64.78
635.811	65.51
636.136	65.63
636.461	65.75
636.785	65.73
637.11	66.38
637.434	66.2
637.758	66.04
638.083	65.95
638.407	65.53
638.731	65.59
639.056	65.58
639.38	66.24
639.704	66.63
640.028	66.69
640.352	66.54
640.676	65.51
641	65.16
641.324	65.02
641.648	64.42
641.972	64.3
642.295	63.07
642.619	63.3
642.943	63.22
643.266	63.17
643.59	63.83
643.913	63.3
644.237	63.55
644.56	63.21
644.884	62.96
645.207	62.56
645.53	62.72
645.854	62.96
646.177	63.54
646.5	64.02
646.823	64
647.146	63.69
647.469	63
647.792	62.49
648.115	62.65
648.438	62.68
648.761	64.83
649.084	65.88
649.406	66.38
649.729	66.42
650.052	66.51
650.374	66.74
650.697	66.55
651.019	66.73
651.342	66.69
651.664	66.7
651.987	66.86
652.309	66.7
652.631	66.87
652.953	67.09
653.276	66.95
653.598	66.79
653.92	66.87
654.242	66.88
654.564	66.84
654.886	66.83
655.208	66.93
655.53	66.98
655.851	67.09
656.173	67.06
656.495	67
656.816	66.42
657.138	66
657.46	65.66
657.781	65.66
658.103	65.26
658.424	65.22
658.746	65.09
659.067	64.92
659.388	65.24
659.709	64.86
660.031	64.56
