Data from T2_Reflection__4__18-48-50-286.txt Node

Date: Fri Jun 04 18:48:50 CEST 2021
User: mabdelazizm
Spectrometer: FLMS18565
Trigger mode: 0
Integration Time (sec): 2.000000E0
Scans to average: 1
Electric dark correction enabled: true
Nonlinearity correction enabled: false
Boxcar width: 12
XAxis mode: Wavelengths
Number of Pixels in Spectrum: 2048
>>>>>Begin Spectral Data<<<<<
179.071	81.56
179.452	47.07
179.833	31.93
180.214	26.92
180.595	-28.46
180.977	-9.89
181.358	0.35
181.739	-39.11
182.12	10.18
182.501	-20.05
182.882	-80.98
183.262	-462.86
183.643	-86.88
184.024	-78.91
184.405	-48.69
184.786	-37.96
185.166	-42.48
185.547	-18.72
185.927	-9.18
186.308	-11.73
186.689	-7.69
187.069	-17.59
187.449	-17.52
187.83	-14.48
188.21	-11.06
188.59	-8.2
188.971	-8.25
189.351	-5.74
189.731	-3.31
190.111	0.29
190.491	-2.54
190.871	-3.89
191.251	-0.78
191.631	2.76
192.011	4.3
192.391	8.77
192.771	9.34
193.151	8.48
193.531	8.71
193.91	10.37
194.29	10.75
194.67	13.39
195.049	10.19
195.429	8.39
195.808	10.48
196.188	8.77
196.567	9.41
196.946	13.49
197.326	10.08
197.705	8.35
198.084	7.11
198.464	6.8
198.843	7.9
199.222	6.95
199.601	4.82
199.98	6.31
200.359	8.01
200.738	8.02
201.117	5.05
201.496	2.47
201.875	1.78
202.254	3.12
202.632	2.7
203.011	4.13
203.39	3.7
203.768	5.23
204.147	3.49
204.525	5.07
204.904	3.41
205.282	1.79
205.661	0.72
206.039	2.8
206.418	-0.92
206.796	2.55
207.174	1.47
207.552	2.83
207.931	3.62
208.309	4.1
208.687	2.43
209.065	6.1
209.443	6.17
209.821	4.69
210.199	3.6
210.577	3.2
210.954	6.88
211.332	4.9
211.71	1.61
212.088	3.65
212.465	3.08
212.843	3.59
213.221	2.55
213.598	3.52
213.976	0.78
214.353	1.23
214.731	3.16
215.108	3.06
215.485	1.96
215.863	2
216.24	-0.11
216.617	1.47
216.994	-0.1
217.371	-0.72
217.749	-1.89
218.126	-2.07
218.503	-4.14
218.88	-5.38
219.256	-5.97
219.633	-5.06
220.01	-5.41
220.387	-5.57
220.764	-4.85
221.14	-1.88
221.517	-2.55
221.894	-2.71
222.27	-3.53
222.647	-4.35
223.023	-4.21
223.4	-3.63
223.776	-2.77
224.153	-2.99
224.529	-2.27
224.905	-2.36
225.282	-1.86
225.658	-2.07
226.034	-2.22
226.41	-1.43
226.786	-1.39
227.162	-0.81
227.538	-0.56
227.914	-0.42
228.29	-0.18
228.666	0.1
229.042	-0.18
229.418	0.1
229.793	-0.14
230.169	-0.03
230.545	-0.34
230.92	-0.29
231.296	-0.04
231.672	0.1
232.047	0.41
232.422	0.32
232.798	0.48
233.173	0.49
233.549	0.61
233.924	0.67
234.299	0.88
234.674	0.8
235.05	0.92
235.425	0.93
235.8	0.86
236.175	1.06
236.55	1.04
236.925	1.12
237.3	1.29
237.675	1.37
238.049	1.24
238.424	1.24
238.799	1.27
239.174	1.38
239.548	1.32
239.923	1.34
240.297	1.29
240.672	1.17
241.046	1.24
241.421	1.18
241.795	1.2
242.17	1.06
242.544	1.05
242.918	0.91
243.293	0.88
243.667	0.8
244.041	0.82
244.415	0.89
244.789	0.85
245.163	0.86
245.537	0.77
245.911	0.78
246.285	0.69
246.659	0.68
247.033	0.67
247.406	0.76
247.78	0.8
248.154	0.73
248.528	0.74
248.901	0.77
249.275	0.76
249.648	0.83
250.022	0.87
250.395	0.8
250.769	0.75
251.142	0.76
251.515	0.79
251.888	0.8
252.262	0.83
252.635	0.83
253.008	0.82
253.381	0.83
253.754	0.77
254.127	0.84
254.5	0.8
254.873	0.85
255.246	0.79
255.619	0.88
255.992	0.88
256.364	0.86
256.737	0.84
257.11	0.8
257.483	0.84
257.855	0.81
258.228	0.79
258.6	0.8
258.973	0.78
259.345	0.76
259.718	0.78
260.09	0.81
260.462	0.81
260.834	0.83
261.207	0.83
261.579	0.85
261.951	0.89
262.323	0.9
262.695	0.91
263.067	0.93
263.439	0.94
263.811	0.97
264.183	0.93
264.555	0.97
264.927	0.95
265.298	0.93
265.67	0.91
266.042	0.93
266.413	0.95
266.785	0.94
267.156	0.96
267.528	0.97
267.899	0.96
268.271	1
268.642	0.97
269.013	0.97
269.385	0.97
269.756	0.98
270.127	0.93
270.498	0.92
270.87	0.92
271.241	0.88
271.612	0.87
271.983	0.86
272.354	0.83
272.724	0.8
273.095	0.84
273.466	0.83
273.837	0.8
274.208	0.79
274.578	0.79
274.949	0.82
275.32	0.79
275.69	0.78
276.061	0.77
276.431	0.75
276.802	0.73
277.172	0.74
277.542	0.71
277.913	0.76
278.283	0.75
278.653	0.74
279.023	0.73
279.394	0.78
279.764	0.79
280.134	0.8
280.504	0.8
280.874	0.82
281.244	0.79
281.614	0.8
281.983	0.74
282.353	0.73
282.723	0.78
283.093	0.79
283.462	0.78
283.832	0.8
284.202	0.81
284.571	0.78
284.941	0.78
285.31	0.83
285.68	0.82
286.049	0.79
286.418	0.77
286.788	0.77
287.157	0.75
287.526	0.73
287.895	0.71
288.264	0.71
288.633	0.67
289.002	0.65
289.371	0.67
289.74	0.65
290.109	0.64
290.478	0.63
290.847	0.63
291.216	0.68
291.585	0.63
291.953	0.52
292.322	0.45
292.691	0.4
293.059	0.35
293.428	0.32
293.796	0.37
294.165	0.36
294.533	0.35
294.901	0.34
295.27	0.39
295.638	0.38
296.006	0.29
296.374	0.28
296.743	0.26
297.111	0.29
297.479	0.31
297.847	0.34
298.215	0.3
298.583	0.2
298.95	0.21
299.318	0.16
299.686	0.16
300.054	0.14
300.422	0.15
300.789	0.15
301.157	0.22
301.525	0.32
301.892	0.35
302.26	0.34
302.627	0.39
302.994	0.37
303.362	0.44
303.729	0.44
304.097	0.38
304.464	0.36
304.831	0.33
305.198	0.41
305.565	0.44
305.932	0.45
306.299	0.43
306.666	0.38
307.033	0.36
307.4	0.39
307.767	0.41
308.134	0.39
308.501	0.45
308.867	0.46
309.234	0.48
309.601	0.49
309.967	0.46
310.334	0.5
310.701	0.5
311.067	0.53
311.433	0.54
311.8	0.41
312.166	0.43
312.533	0.35
312.899	0.31
313.265	0.39
313.631	0.4
313.997	0.41
314.363	0.38
314.729	0.37
315.096	0.38
315.461	0.35
315.827	0.37
316.193	0.36
316.559	0.41
316.925	0.45
317.291	0.46
317.656	0.46
318.022	0.46
318.388	0.46
318.753	0.43
319.119	0.46
319.484	0.47
319.85	0.45
320.215	0.41
320.581	0.41
320.946	0.5
321.311	0.48
321.676	0.47
322.042	0.51
322.407	0.43
322.772	0.44
323.137	0.48
323.502	0.52
323.867	0.54
324.232	0.52
324.597	0.57
324.962	0.58
325.327	0.59
325.691	0.53
326.056	0.52
326.421	0.51
326.785	0.51
327.15	0.45
327.514	0.45
327.879	0.44
328.243	0.45
328.608	0.35
328.972	0.37
329.337	0.33
329.701	0.32
330.065	0.29
330.429	0.3
330.794	0.36
331.158	0.31
331.522	0.33
331.886	0.32
332.25	0.26
332.614	0.25
332.978	0.21
333.342	0.22
333.705	0.2
334.069	0.2
334.433	0.18
334.797	0.2
335.16	0.18
335.524	0.19
335.887	0.15
336.251	0.18
336.614	0.15
336.978	0.15
337.341	0.12
337.705	0.17
338.068	0.13
338.431	0.22
338.794	0.19
339.158	0.22
339.521	0.16
339.884	0.09
340.247	0.13
340.61	0.15
340.973	0.12
341.336	0.14
341.699	0.07
342.062	0.02
342.424	0.03
342.787	0.01
343.15	0
343.512	0.03
343.875	0.02
344.238	0.09
344.6	0.09
344.963	0.12
345.325	0.09
345.688	0.08
346.05	0.05
346.412	0.08
346.775	0.04
347.137	0.02
347.499	-0.05
347.861	0.02
348.223	-0
348.585	-0
348.947	-0.02
349.309	-0.06
349.671	-0.05
350.033	-0.03
350.395	-0.02
350.757	-0.02
351.118	-0.01
351.48	-0.03
351.842	0.08
352.203	0.09
352.565	0.03
352.927	0.03
353.288	-0.05
353.65	-0.07
354.011	-0.06
354.372	0.06
354.734	0.06
355.095	0.12
355.456	0.12
355.817	0.1
356.179	0.09
356.54	0.12
356.901	0.05
357.262	0
357.623	0.01
357.984	0.06
358.345	0.1
358.705	0.1
359.066	0.12
359.427	0.12
359.788	0.16
360.148	0.2
360.509	0.17
360.87	0.09
361.23	0.06
361.591	0.14
361.951	0.1
362.312	0.09
362.672	0.09
363.032	0.06
363.393	0
363.753	-0.01
364.113	-0.11
364.473	-0.15
364.833	-0.09
365.193	-0.07
365.553	-0.09
365.913	-0.07
366.273	-0.06
366.633	-0.05
366.993	-0.09
367.353	-0.15
367.713	-0.14
368.072	-0.18
368.432	-0.15
368.792	-0.2
369.151	-0.25
369.511	-0.21
369.87	-0.24
370.23	-0.25
370.589	-0.25
370.949	-0.25
371.308	-0.25
371.667	-0.25
372.027	-0.18
372.386	-0.18
372.745	-0.15
373.104	-0.13
373.463	-0.11
373.822	-0.13
374.181	-0.15
374.54	-0.11
374.899	-0.06
375.258	-0.06
375.617	-0.08
375.975	-0.04
376.334	-0.06
376.693	-0.04
377.052	0.02
377.41	-0.01
377.769	0.05
378.127	0.09
378.486	0.07
378.844	0.06
379.202	0.04
379.561	-0
379.919	0.01
380.277	0.03
380.636	0.02
380.994	-0.09
381.352	-0.08
381.71	-0.12
382.068	-0.06
382.426	-0.05
382.784	-0.03
383.142	-0.08
383.5	-0.13
383.857	-0.16
384.215	-0.16
384.573	-0.18
384.931	-0.15
385.288	-0.17
385.646	-0.29
386.003	-0.32
386.361	-0.34
386.718	-0.32
387.076	-0.35
387.433	-0.35
387.791	-0.29
388.148	-0.27
388.505	-0.26
388.862	-0.23
389.22	-0.24
389.577	-0.15
389.934	-0.12
390.291	-0.16
390.648	-0.1
391.005	-0.17
391.362	-0.19
391.718	-0.22
392.075	-0.26
392.432	-0.2
392.789	-0.15
393.145	-0.14
393.502	-0.12
393.859	-0.15
394.215	-0.06
394.572	0
394.928	-0.01
395.285	0
395.641	-0.05
395.997	-0.05
396.354	-0.06
396.71	-0.06
397.066	-0.03
397.422	-0.01
397.778	-0.11
398.134	-0.08
398.491	-0.21
398.846	-0.25
399.202	-0.19
399.558	-0.28
399.914	-0.2
400.27	-0.18
400.626	-0.22
400.981	-0.12
401.337	-0.12
401.693	-0.16
402.048	-0.2
402.404	-0.17
402.759	-0.17
403.115	-0.19
403.47	-0.19
403.826	-0.2
404.181	-0.23
404.536	-0.21
404.892	-0.23
405.247	-0.24
405.602	-0.32
405.957	-0.35
406.312	-0.38
406.667	-0.32
407.022	-0.33
407.377	-0.32
407.732	-0.19
408.087	-0.33
408.442	-0.31
408.796	-0.38
409.151	-0.36
409.506	-0.24
409.86	-0.27
410.215	-0.36
410.57	-0.36
410.924	-0.27
411.279	-0.25
411.633	-0.28
411.987	-0.34
412.342	-0.35
412.696	-0.37
413.05	-0.34
413.404	-0.34
413.758	-0.28
414.113	-0.27
414.467	-0.18
414.821	-0.19
415.175	-0.17
415.529	-0.15
415.882	-0.15
416.236	-0.09
416.59	-0.17
416.944	-0.06
417.298	0.03
417.651	0.1
418.005	0.2
418.358	0.22
418.712	0.26
419.065	0.32
419.419	0.34
419.772	0.2
420.126	0.26
420.479	0.33
420.832	0.36
421.185	0.47
421.539	0.52
421.892	0.56
422.245	0.59
422.598	0.63
422.951	0.69
423.304	0.7
423.657	0.79
424.01	0.89
424.363	0.95
424.715	0.99
425.068	1.05
425.421	1.15
425.773	1.17
426.126	1.33
426.479	1.4
426.831	1.39
427.184	1.39
427.536	1.43
427.889	1.53
428.241	1.65
428.593	1.88
428.945	1.94
429.298	2.07
429.65	2.21
430.002	2.28
430.354	2.48
430.706	2.63
431.058	2.79
431.41	2.88
431.762	2.88
432.114	3.03
432.466	3.15
432.817	3.31
433.169	3.46
433.521	3.6
433.872	3.65
434.224	3.76
434.576	3.91
434.927	3.86
435.279	3.88
435.63	4.04
435.981	4.15
436.333	4.33
436.684	4.53
437.035	4.59
437.387	4.68
437.738	4.71
438.089	4.8
438.44	4.87
438.791	4.83
439.142	4.83
439.493	4.87
439.844	4.93
440.195	5.06
440.545	5.3
440.896	5.34
441.247	5.39
441.598	5.4
441.948	5.41
442.299	5.45
442.649	5.61
443	5.66
443.35	5.75
443.701	5.83
444.051	5.89
444.401	5.93
444.752	5.98
445.102	5.93
445.452	5.9
445.802	5.96
446.152	5.96
446.502	6.03
446.852	6.01
447.202	6.12
447.552	6.27
447.902	6.39
448.252	6.38
448.602	6.6
448.952	6.62
449.301	6.61
449.651	6.71
450.001	6.71
450.35	6.73
450.7	6.81
451.049	6.9
451.399	6.98
451.748	7.08
452.097	7.21
452.447	7.29
452.796	7.54
453.145	7.63
453.494	7.68
453.843	7.91
454.193	8.05
454.542	8.16
454.891	8.36
455.239	8.47
455.588	8.7
455.937	8.73
456.286	8.89
456.635	8.87
456.984	9.02
457.332	9.05
457.681	9.2
458.03	9.43
458.378	9.52
458.727	9.66
459.075	9.77
459.423	9.99
459.772	10.11
460.12	10.27
460.468	10.45
460.817	10.62
461.165	10.77
461.513	10.72
461.861	10.77
462.209	10.96
462.557	11.04
462.905	11.08
463.253	11.19
463.601	11.31
463.949	11.38
464.297	11.4
464.644	11.51
464.992	11.58
465.34	11.78
465.687	11.89
466.035	11.83
466.383	11.89
466.73	11.86
467.078	11.87
467.425	11.91
467.772	12.04
468.12	11.99
468.467	12.03
468.814	12
469.161	11.93
469.508	11.84
469.856	11.81
470.203	11.71
470.55	11.62
470.897	11.56
471.243	11.41
471.59	11.37
471.937	11.24
472.284	11.06
472.631	10.99
472.977	10.91
473.324	10.89
473.671	10.74
474.017	10.64
474.364	10.5
474.71	10.46
475.057	10.39
475.403	10.37
475.749	10.24
476.096	10.21
476.442	10.11
476.788	10.1
477.134	10.07
477.48	10.01
477.826	10
478.172	9.93
478.518	9.9
478.864	10.11
479.21	10.25
479.556	10.26
479.902	10.38
480.248	10.48
480.593	10.58
480.939	10.66
481.285	10.82
481.63	10.97
481.976	11.07
482.321	11.23
482.667	11.33
483.012	11.49
483.357	11.69
483.703	11.86
484.048	12.01
484.393	12.35
484.738	12.56
485.084	12.76
485.429	12.94
485.774	13.18
486.119	13.49
486.464	13.74
486.808	14.06
487.153	14.38
487.498	14.6
487.843	14.83
488.188	15.27
488.532	15.65
488.877	16.06
489.222	16.43
489.566	16.87
489.911	17.24
490.255	17.65
490.6	18.01
490.944	18.43
491.288	18.9
491.633	19.33
491.977	19.67
492.321	20.11
492.665	20.61
493.009	20.99
493.353	21.41
493.697	21.88
494.041	22.38
494.385	22.81
494.729	23.29
495.073	23.84
495.417	24.35
495.76	24.81
496.104	25.33
496.448	25.91
496.791	26.4
497.135	27
497.479	27.54
497.822	28.14
498.165	28.67
498.509	29.24
498.852	29.8
499.196	30.36
499.539	30.93
499.882	31.51
500.225	32.1
500.568	32.77
500.911	33.34
501.254	33.85
501.597	34.37
501.94	34.93
502.283	35.47
502.626	36.02
502.969	36.59
503.312	37.05
503.654	37.61
503.997	38.08
504.34	38.64
504.682	39.13
505.025	39.65
505.367	40.2
505.71	40.53
506.052	41
506.395	41.55
506.737	42.08
507.079	42.58
507.421	43.06
507.764	43.63
508.106	44.03
508.448	44.4
508.79	44.84
509.132	45.25
509.474	45.63
509.816	46.07
510.158	46.5
510.499	46.92
510.841	47.26
511.183	47.64
511.525	48.04
511.866	48.54
512.208	48.81
512.549	49.17
512.891	49.53
513.232	49.97
513.574	50.3
513.915	50.53
514.256	51.01
514.598	51.37
514.939	51.6
515.28	51.81
515.621	52.19
515.962	52.49
516.303	52.76
516.644	52.98
516.985	53.3
517.326	53.55
517.667	53.71
518.008	53.99
518.349	54.23
518.69	54.49
519.03	54.69
519.371	55.07
519.712	55.32
520.052	55.43
520.393	55.52
520.733	55.67
521.074	55.96
521.414	56.32
521.754	56.47
522.095	56.62
522.435	56.8
522.775	56.94
523.115	57.09
523.455	57.16
523.795	57.24
524.135	57.34
524.475	57.5
524.815	57.61
525.155	57.92
525.495	58.03
525.835	58.15
526.175	58.34
526.514	58.49
526.854	58.57
527.194	58.7
527.533	58.97
527.873	58.98
528.212	58.97
528.552	59.17
528.891	59.32
529.23	59.56
529.57	59.63
529.909	59.6
530.248	59.56
530.587	59.68
530.927	59.77
531.266	59.81
531.605	60.04
531.944	60.14
532.283	60.33
532.621	60.23
532.96	60.31
533.299	60.48
533.638	60.42
533.977	60.55
534.315	60.7
534.654	60.75
534.992	60.77
535.331	60.84
535.67	60.95
536.008	60.98
536.346	61.01
536.685	61.05
537.023	61.04
537.361	61.1
537.7	61.11
538.038	61.08
538.376	61.09
538.714	61.28
539.052	61.32
539.39	61.3
539.728	61.28
540.066	61.11
540.404	61.11
540.741	61.25
541.079	61.43
541.417	61.39
541.755	61.38
542.092	61.43
542.43	61.41
542.767	61.36
543.105	61.33
543.442	61.35
543.78	61.34
544.117	61.24
544.454	61.31
544.792	61.28
545.129	61.37
545.466	61.38
545.803	61.35
546.14	61.34
546.477	61.42
546.814	61.36
547.151	61.31
547.488	61.39
547.825	61.43
548.162	61.44
548.499	61.47
548.835	61.62
549.172	61.6
549.509	61.59
549.845	61.72
550.182	61.66
550.518	61.63
550.855	61.6
551.191	61.62
551.528	61.63
551.864	61.71
552.2	61.77
552.537	61.83
552.873	61.76
553.209	61.99
553.545	61.95
553.881	61.94
554.217	61.89
554.553	62.01
554.889	61.94
555.225	61.97
555.561	61.93
555.896	61.93
556.232	61.98
556.568	62
556.903	61.97
557.239	61.86
557.575	61.97
557.91	61.92
558.245	61.8
558.581	61.97
558.916	62.14
559.252	62.37
559.587	62.45
559.922	62.49
560.257	62.55
560.592	62.54
560.928	62.54
561.263	62.6
561.598	62.4
561.933	62.44
562.267	62.48
562.602	62.55
562.937	62.58
563.272	62.69
563.607	62.76
563.941	62.87
564.276	62.89
564.611	62.93
564.945	63.08
565.28	63.18
565.614	63.1
565.949	62.86
566.283	62.99
566.617	63.02
566.951	63.01
567.286	63.02
567.62	63.07
567.954	63.07
568.288	63.18
568.622	63.08
568.956	63.08
569.29	63.16
569.624	63.06
569.958	63.21
570.292	63.21
570.626	63.35
570.959	63.36
571.293	63.31
571.627	63.35
571.96	63.33
572.294	63.46
572.627	63.45
572.961	63.51
573.294	63.38
573.627	63.44
573.961	63.47
574.294	63.55
574.627	63.53
574.961	63.65
575.294	63.54
575.627	63.69
575.96	63.58
576.293	63.44
576.626	63.42
576.959	63.58
577.292	63.64
577.624	63.57
577.957	63.65
578.29	63.64
578.623	63.65
578.955	63.65
579.288	63.65
579.62	63.62
579.953	63.57
580.285	63.55
580.618	63.46
580.95	63.48
581.282	63.52
581.615	63.73
581.947	63.69
582.279	63.84
582.611	63.86
582.943	63.81
583.275	63.7
583.607	63.83
583.939	63.66
584.271	63.64
584.603	63.78
584.935	63.77
585.267	63.58
585.598	63.61
585.93	63.73
586.262	63.57
586.593	63.52
586.925	63.56
587.256	63.45
587.588	63.47
587.919	63.54
588.25	63.58
588.582	63.71
588.913	63.77
589.244	63.8
589.575	63.78
589.907	63.72
590.238	63.73
590.569	63.67
590.9	63.72
591.231	63.72
591.562	63.74
591.892	63.6
592.223	63.58
592.554	63.74
592.885	63.85
593.215	63.84
593.546	63.77
593.877	63.68
594.207	63.59
594.538	63.71
594.868	63.77
595.198	63.67
595.529	63.54
595.859	63.42
596.189	63.5
596.52	63.59
596.85	63.58
597.18	63.47
597.51	63.3
597.84	63.31
598.17	63.32
598.5	63.2
598.83	63.21
599.16	63.21
599.489	63.34
599.819	63.35
600.149	63.41
600.479	63.44
600.808	63.22
601.138	63.07
601.467	63.06
601.797	63.26
602.126	63.21
602.456	63.29
602.785	63.4
603.114	63.36
603.443	63.53
603.773	63.73
604.102	63.94
604.431	63.8
604.76	63.63
605.089	63.57
605.418	63.54
605.747	63.62
606.076	63.56
606.405	63.48
606.733	63.6
607.062	63.57
607.391	63.5
607.72	63.3
608.048	63.18
608.377	63.18
608.705	63.27
609.034	63.41
609.362	63.58
609.69	63.71
610.019	63.69
610.347	63.83
610.675	63.72
611.004	63.71
611.332	63.56
611.66	63.61
611.988	63.46
612.316	63.5
612.644	63.53
612.972	63.74
613.3	63.72
613.627	63.87
613.955	63.9
614.283	63.79
614.611	63.62
614.938	63.64
615.266	63.74
615.593	64.02
615.921	64.3
616.248	64.73
616.576	64.76
616.903	64.84
617.23	64.69
617.558	64.54
617.885	64.57
618.212	64.46
618.539	64.27
618.866	64.13
619.193	64.04
619.52	64.26
619.847	64.05
620.174	64.19
620.501	63.92
620.828	63.79
621.155	63.67
621.481	63.54
621.808	63.36
622.135	63.43
622.461	63.33
622.788	63.53
623.114	63.44
623.441	62.82
623.767	62.55
624.093	62.4
624.42	62.13
624.746	62.14
625.072	61.86
625.398	62.2
625.725	62.3
626.051	62.03
626.377	62.19
626.703	62.08
627.029	62.34
627.354	62.29
627.68	62
628.006	61.91
628.332	61.84
628.658	61.88
628.983	61.73
629.309	61.61
629.634	61.68
629.96	61.53
630.285	61.5
630.611	61.46
630.936	61.44
631.262	61.96
631.587	62.61
631.912	62.93
632.237	63.04
632.562	63.45
632.887	63.36
633.213	63.62
633.538	63.62
633.863	63.55
634.187	63.59
634.512	63.23
634.837	63.11
635.162	63.19
635.487	63.24
635.811	63.63
636.136	63.95
636.461	63.86
636.785	64.01
637.11	64.67
637.434	64.28
637.758	64.55
638.083	64.79
638.407	64.51
638.731	64.94
639.056	64.68
639.38	64.18
639.704	64.15
640.028	63.87
640.352	63.73
640.676	62.92
641	63.18
641.324	62.88
641.648	62.65
641.972	62.45
642.295	62.09
642.619	62.43
642.943	62.99
643.266	62.78
643.59	62.77
643.913	62.69
644.237	62.6
644.56	62.87
644.884	63.23
645.207	62.7
645.53	63
645.854	63.13
646.177	63.07
646.5	63.14
646.823	63.06
647.146	63.32
647.469	63.35
647.792	63.13
648.115	63.09
648.438	62.96
648.761	63.83
649.084	63.8
649.406	63.64
649.729	63.95
650.052	64.13
650.374	64.06
650.697	63.98
651.019	63.93
651.342	63.95
651.664	64.05
651.987	64.21
652.309	64.17
652.631	64.33
652.953	64.31
653.276	64.23
653.598	64.31
653.92	64.39
654.242	64.4
654.564	64.47
654.886	64.41
655.208	64.52
655.53	64.52
655.851	64.5
656.173	64.61
656.495	64.72
656.816	64.51
657.138	64.7
657.46	64.87
657.781	64.7
658.103	64.44
658.424	64.94
658.746	64.8
