Data from T2_Reflection__73__19-38-24-188.txt Node

Date: Fri Jun 04 19:38:24 CEST 2021
User: mabdelazizm
Spectrometer: FLMS18565
Trigger mode: 0
Integration Time (sec): 2.000000E0
Scans to average: 1
Electric dark correction enabled: true
Nonlinearity correction enabled: false
Boxcar width: 12
XAxis mode: Wavelengths
Number of Pixels in Spectrum: 2048
>>>>>Begin Spectral Data<<<<<
179.071	15.32
179.452	26.4
179.833	-58.22
180.214	-98.08
180.595	-110.9
180.977	-168.44
181.358	-125.83
181.739	-137.99
182.12	-78.76
182.501	-72.96
182.882	-89.26
183.262	-454.29
183.643	-71.8
184.024	-48.52
184.405	-15.17
184.786	0.44
185.166	16.44
185.547	18.01
185.927	30.51
186.308	18.07
186.689	31.71
187.069	28.03
187.449	21.67
187.83	10.84
188.21	2.62
188.59	2.22
188.971	1.6
189.351	6.66
189.731	9.18
190.111	9.96
190.491	8.26
190.871	4.22
191.251	7.12
191.631	9
192.011	6.42
192.391	6.33
192.771	5.7
193.151	4.53
193.531	5.24
193.91	5.7
194.29	5.27
194.67	3.99
195.049	1.1
195.429	-1.58
195.808	-3.02
196.188	-8.25
196.567	-11.57
196.946	-8.83
197.326	-9.64
197.705	-5.84
198.084	-7.86
198.464	-7.59
198.843	-7.63
199.222	-6.94
199.601	-6.72
199.98	-8.25
200.359	-6.6
200.738	-5.47
201.117	-10.24
201.496	-11.21
201.875	-9.99
202.254	-6.86
202.632	-8.09
203.011	-7.1
203.39	-6.98
203.768	-7.14
204.147	-4.59
204.525	-4.69
204.904	-7.87
205.282	-7.56
205.661	-10.09
206.039	-6.72
206.418	-8.65
206.796	-6.08
207.174	-7.5
207.552	-5.83
207.931	-10.42
208.309	-11.8
208.687	-12.91
209.065	-10.97
209.443	-10.13
209.821	-12.31
210.199	-15.4
210.577	-13.5
210.954	-10.81
211.332	-12.03
211.71	-14.81
212.088	-12.71
212.465	-12.62
212.843	-12.21
213.221	-8.25
213.598	-8.76
213.976	-9.57
214.353	-9.11
214.731	-9.06
215.108	-4.98
215.485	-4.75
215.863	-6.05
216.24	-7
216.617	-7.44
216.994	-7.72
217.371	-3.88
217.749	-3.03
218.126	-3.24
218.503	-3.92
218.88	-4.5
219.256	-3.48
219.633	-2.47
220.01	-2.5
220.387	-2.16
220.764	-2.18
221.14	-0.56
221.517	-1.09
221.894	-1.4
222.27	-1.95
222.647	-3.34
223.023	-3.48
223.4	-3.18
223.776	-2.06
224.153	-2.28
224.529	-2.96
224.905	-2.02
225.282	-1.47
225.658	-0.98
226.034	-0.46
226.41	-0.41
226.786	-1.08
227.162	-0.81
227.538	-0.8
227.914	-0.86
228.29	-0.44
228.666	-0.4
229.042	-0.35
229.418	0.08
229.793	-0.32
230.169	-0.35
230.545	-0.56
230.92	-0.54
231.296	-0.53
231.672	-0.49
232.047	-0.54
232.422	-0.26
232.798	-0.07
233.173	-0.14
233.549	0.18
233.924	0.28
234.299	0.2
234.674	0.29
235.05	0.24
235.425	0.29
235.8	0.38
236.175	0.59
236.55	0.66
236.925	0.77
237.3	0.95
237.675	1.02
238.049	0.99
238.424	0.98
238.799	0.88
239.174	1.01
239.548	1.03
239.923	1.06
240.297	1.08
240.672	1.07
241.046	1.14
241.421	1.18
241.795	1.12
242.17	1.1
242.544	1.19
242.918	1.1
243.293	1.09
243.667	1.05
244.041	1.12
244.415	1.09
244.789	1.01
245.163	0.99
245.537	0.96
245.911	0.95
246.285	0.92
246.659	0.86
247.033	0.83
247.406	0.91
247.78	0.96
248.154	0.94
248.528	1
248.901	1.04
249.275	1.08
249.648	1.15
250.022	1.18
250.395	1.16
250.769	1.17
251.142	1.23
251.515	1.24
251.888	1.22
252.262	1.24
252.635	1.29
253.008	1.29
253.381	1.22
253.754	1.27
254.127	1.32
254.5	1.36
254.873	1.33
255.246	1.32
255.619	1.37
255.992	1.43
256.364	1.45
256.737	1.41
257.11	1.4
257.483	1.45
257.855	1.47
258.228	1.49
258.6	1.49
258.973	1.51
259.345	1.6
259.718	1.57
260.09	1.61
260.462	1.53
260.834	1.53
261.207	1.53
261.579	1.52
261.951	1.53
262.323	1.52
262.695	1.57
263.067	1.58
263.439	1.62
263.811	1.65
264.183	1.68
264.555	1.71
264.927	1.71
265.298	1.66
265.67	1.59
266.042	1.59
266.413	1.57
266.785	1.56
267.156	1.51
267.528	1.48
267.899	1.47
268.271	1.41
268.642	1.28
269.013	1.32
269.385	1.33
269.756	1.34
270.127	1.26
270.498	1.25
270.87	1.25
271.241	1.2
271.612	1.16
271.983	1.16
272.354	1.13
272.724	1.1
273.095	1.07
273.466	1.05
273.837	1.05
274.208	1.03
274.578	1.01
274.949	1.12
275.32	1.16
275.69	1.11
276.061	1.05
276.431	1.02
276.802	1
277.172	0.96
277.542	0.95
277.913	0.99
278.283	0.97
278.653	0.96
279.023	0.98
279.394	1.08
279.764	1.07
280.134	1.09
280.504	1.11
280.874	1.15
281.244	1.12
281.614	1.11
281.983	1.12
282.353	1.14
282.723	1.19
283.093	1.16
283.462	1.18
283.832	1.19
284.202	1.13
284.571	1.1
284.941	1.14
285.31	1.2
285.68	1.24
286.049	1.21
286.418	1.22
286.788	1.33
287.157	1.35
287.526	1.37
287.895	1.33
288.264	1.3
288.633	1.23
289.002	1.23
289.371	1.28
289.74	1.24
290.109	1.22
290.478	1.22
290.847	1.25
291.216	1.22
291.585	1.14
291.953	1.09
292.322	1.09
292.691	1.05
293.059	1.01
293.428	1.01
293.796	1.06
294.165	1.05
294.533	1.03
294.901	1
295.27	1.07
295.638	1.05
296.006	0.94
296.374	0.89
296.743	0.84
297.111	0.81
297.479	0.81
297.847	0.85
298.215	0.8
298.583	0.75
298.95	0.76
299.318	0.81
299.686	0.78
300.054	0.74
300.422	0.75
300.789	0.76
301.157	0.76
301.525	0.74
301.892	0.76
302.26	0.77
302.627	0.76
302.994	0.71
303.362	0.75
303.729	0.78
304.097	0.78
304.464	0.7
304.831	0.71
305.198	0.72
305.565	0.76
305.932	0.77
306.299	0.74
306.666	0.76
307.033	0.74
307.4	0.77
307.767	0.68
308.134	0.68
308.501	0.67
308.867	0.69
309.234	0.69
309.601	0.72
309.967	0.71
310.334	0.71
310.701	0.73
311.067	0.75
311.433	0.78
311.8	0.71
312.166	0.71
312.533	0.66
312.899	0.58
313.265	0.6
313.631	0.64
313.997	0.66
314.363	0.61
314.729	0.56
315.096	0.56
315.461	0.55
315.827	0.6
316.193	0.61
316.559	0.64
316.925	0.7
317.291	0.72
317.656	0.7
318.022	0.67
318.388	0.73
318.753	0.69
319.119	0.71
319.484	0.77
319.85	0.75
320.215	0.72
320.581	0.72
320.946	0.8
321.311	0.76
321.676	0.75
322.042	0.79
322.407	0.73
322.772	0.75
323.137	0.7
323.502	0.81
323.867	0.86
324.232	0.81
324.597	0.85
324.962	0.81
325.327	0.77
325.691	0.79
326.056	0.81
326.421	0.77
326.785	0.76
327.15	0.75
327.514	0.63
327.879	0.67
328.243	0.69
328.608	0.64
328.972	0.65
329.337	0.63
329.701	0.62
330.065	0.56
330.429	0.61
330.794	0.63
331.158	0.62
331.522	0.6
331.886	0.53
332.25	0.5
332.614	0.39
332.978	0.32
333.342	0.42
333.705	0.39
334.069	0.37
334.433	0.39
334.797	0.35
335.16	0.3
335.524	0.37
335.887	0.37
336.251	0.41
336.614	0.45
336.978	0.44
337.341	0.43
337.705	0.41
338.068	0.46
338.431	0.47
338.794	0.42
339.158	0.43
339.521	0.42
339.884	0.37
340.247	0.38
340.61	0.45
340.973	0.53
341.336	0.57
341.699	0.55
342.062	0.58
342.424	0.53
342.787	0.55
343.15	0.53
343.512	0.51
343.875	0.52
344.238	0.57
344.6	0.47
344.963	0.52
345.325	0.49
345.688	0.45
346.05	0.41
346.412	0.39
346.775	0.36
347.137	0.33
347.499	0.36
347.861	0.41
348.223	0.44
348.585	0.4
348.947	0.4
349.309	0.37
349.671	0.36
350.033	0.28
350.395	0.31
350.757	0.36
351.118	0.3
351.48	0.25
351.842	0.28
352.203	0.3
352.565	0.26
352.927	0.26
353.288	0.22
353.65	0.25
354.011	0.15
354.372	0.19
354.734	0.24
355.095	0.23
355.456	0.23
355.817	0.25
356.179	0.22
356.54	0.2
356.901	0.13
357.262	0.12
357.623	0.13
357.984	0.21
358.345	0.25
358.705	0.23
359.066	0.26
359.427	0.24
359.788	0.21
360.148	0.3
360.509	0.39
360.87	0.41
361.23	0.4
361.591	0.48
361.951	0.4
362.312	0.43
362.672	0.39
363.032	0.48
363.393	0.47
363.753	0.41
364.113	0.36
364.473	0.32
364.833	0.35
365.193	0.33
365.553	0.34
365.913	0.33
366.273	0.3
366.633	0.3
366.993	0.18
367.353	0.1
367.713	0.11
368.072	0.09
368.432	0.06
368.792	0.05
369.151	0.02
369.511	0.01
369.87	-0.1
370.23	-0.03
370.589	-0.04
370.949	-0.03
371.308	-0.04
371.667	-0.04
372.027	-0.08
372.386	-0.07
372.745	-0.06
373.104	-0.01
373.463	0.01
373.822	-0.02
374.181	-0.04
374.54	-0.08
374.899	-0.01
375.258	-0.04
375.617	-0.03
375.975	0.02
376.334	0.07
376.693	0.17
377.052	0.21
377.41	0.23
377.769	0.3
378.127	0.26
378.486	0.23
378.844	0.23
379.202	0.2
379.561	0.12
379.919	0.15
380.277	0.16
380.636	0.19
380.994	0.14
381.352	0.06
381.71	0.03
382.068	0.08
382.426	0.06
382.784	0.1
383.142	0.04
383.5	0.06
383.857	0.05
384.215	0.05
384.573	-0
384.931	-0.02
385.288	-0.07
385.646	-0.18
386.003	-0.17
386.361	-0.17
386.718	-0.17
387.076	-0.16
387.433	-0.2
387.791	-0.15
388.148	-0.16
388.505	-0.14
388.862	-0.08
389.22	-0.06
389.577	-0.04
389.934	0.04
390.291	0.15
390.648	0.2
391.005	0.23
391.362	0.17
391.718	0.14
392.075	0.14
392.432	0.2
392.789	0.17
393.145	0.16
393.502	0.21
393.859	0.24
394.215	0.3
394.572	0.24
394.928	0.21
395.285	0.19
395.641	0.15
395.997	0.21
396.354	0.23
396.71	0.23
397.066	0.22
397.422	0.3
397.778	0.18
398.134	0.16
398.491	0.12
398.846	0.09
399.202	0.07
399.558	0.01
399.914	-0.03
400.27	0.02
400.626	-0.03
400.981	0.01
401.337	-0.01
401.693	-0.02
402.048	-0.02
402.404	-0.08
402.759	-0.08
403.115	-0.1
403.47	-0.03
403.826	-0.02
404.181	-0.06
404.536	-0.08
404.892	-0.16
405.247	-0.16
405.602	-0.22
405.957	-0.2
406.312	-0.26
406.667	-0.21
407.022	-0.21
407.377	-0.14
407.732	-0.13
408.087	-0.18
408.442	-0.1
408.796	-0.12
409.151	-0.07
409.506	0.04
409.86	0.06
410.215	0.04
410.57	0.07
410.924	0.16
411.279	0.2
411.633	0.2
411.987	0.22
412.342	0.25
412.696	0.22
413.05	0.25
413.404	0.34
413.758	0.45
414.113	0.5
414.467	0.61
414.821	0.59
415.175	0.62
415.529	0.61
415.882	0.56
416.236	0.49
416.59	0.48
416.944	0.54
417.298	0.59
417.651	0.6
418.005	0.65
418.358	0.65
418.712	0.71
419.065	0.75
419.419	0.7
419.772	0.64
420.126	0.74
420.479	0.84
420.832	0.82
421.185	0.87
421.539	0.86
421.892	0.9
422.245	0.85
422.598	0.85
422.951	0.92
423.304	0.84
423.657	0.81
424.01	0.81
424.363	0.81
424.715	0.91
425.068	0.92
425.421	0.96
425.773	0.95
426.126	1.04
426.479	1.06
426.831	1.03
427.184	0.98
427.536	0.96
427.889	0.95
428.241	1.09
428.593	1.14
428.945	1.18
429.298	1.18
429.65	1.22
430.002	1.17
430.354	1.34
430.706	1.37
431.058	1.47
431.41	1.42
431.762	1.3
432.114	1.41
432.466	1.46
432.817	1.51
433.169	1.64
433.521	1.61
433.872	1.75
434.224	1.73
434.576	1.7
434.927	1.56
435.279	1.51
435.63	1.53
435.981	1.66
436.333	1.7
436.684	1.69
437.035	1.56
437.387	1.57
437.738	1.48
438.089	1.35
438.44	1.3
438.791	1.23
439.142	1.16
439.493	1.13
439.844	1.09
440.195	1.14
440.545	1.18
440.896	1.18
441.247	1.1
441.598	1.06
441.948	1.02
442.299	1.03
442.649	0.98
443	0.93
443.35	1.04
443.701	1.05
444.051	1.04
444.401	0.96
444.752	0.85
445.102	0.82
445.452	0.78
445.802	0.77
446.152	0.74
446.502	0.77
446.852	0.75
447.202	0.8
447.552	0.85
447.902	0.91
448.252	0.85
448.602	0.48
448.952	0.42
449.301	0.4
449.651	0.38
450.001	0.39
450.35	0.4
450.7	0.4
451.049	0.43
451.399	0.45
451.748	0.49
452.097	0.52
452.447	0.47
452.796	0.66
453.145	0.81
453.494	0.9
453.843	0.92
454.193	1.03
454.542	1.11
454.891	1.14
455.239	1.11
455.588	1.26
455.937	1.25
456.286	1.26
456.635	1.23
456.984	1.26
457.332	1.73
457.681	1.72
458.03	1.81
458.378	1.71
458.727	1.8
459.075	1.82
459.423	1.98
459.772	2
460.12	1.9
460.468	1.94
460.817	1.9
461.165	2
461.513	1.87
461.861	1.81
462.209	1.78
462.557	1.86
462.905	1.78
463.253	1.79
463.601	1.93
463.949	1.91
464.297	1.86
464.644	1.88
464.992	1.85
465.34	1.76
465.687	1.84
466.035	1.72
466.383	1.81
466.73	1.74
467.078	1.8
467.425	1.81
467.772	1.89
468.12	1.75
468.467	1.66
468.814	1.69
469.161	1.66
469.508	1.68
469.856	1.61
470.203	1.63
470.55	1.55
470.897	1.55
471.243	1.45
471.59	1.53
471.937	1.55
472.284	1.45
472.631	1.42
472.977	1.41
473.324	1.42
473.671	1.35
474.017	1.39
474.364	1.34
474.71	1.46
475.057	1.41
475.403	1.41
475.749	1.4
476.096	1.38
476.442	1.31
476.788	1.32
477.134	1.33
477.48	1.36
477.826	1.37
478.172	1.34
478.518	1.33
478.864	1.37
479.21	1.49
479.556	1.47
479.902	1.56
480.248	1.54
480.593	1.54
480.939	1.53
481.285	1.6
481.63	1.66
481.976	1.7
482.321	1.82
482.667	1.86
483.012	1.87
483.357	1.88
483.703	1.94
484.048	2.11
484.393	2.26
484.738	2.38
485.084	2.47
485.429	2.58
485.774	2.71
486.119	2.81
486.464	2.97
486.808	3.14
487.153	3.34
487.498	3.5
487.843	3.55
488.188	3.73
488.532	3.98
488.877	4.26
489.222	4.51
489.566	4.84
489.911	5.23
490.255	5.55
490.6	5.88
490.944	6.23
491.288	6.61
491.633	7.08
491.977	7.51
492.321	7.95
492.665	8.28
493.009	8.71
493.353	9.24
493.697	9.69
494.041	10.2
494.385	10.71
494.729	11.29
495.073	11.88
495.417	12.44
495.76	13.04
496.104	13.66
496.448	14.37
496.791	15.02
497.135	15.63
497.479	16.29
497.822	16.95
498.165	17.61
498.509	18.26
498.852	18.96
499.196	19.73
499.539	20.48
499.882	21.18
500.225	21.89
500.568	22.55
500.911	23.2
501.254	23.91
501.597	24.55
501.94	25.13
502.283	25.75
502.626	26.45
502.969	27.07
503.312	27.65
503.654	28.26
503.997	28.85
504.34	29.46
504.682	30.07
505.025	30.65
505.367	31.25
505.71	31.73
506.052	32.24
506.395	32.9
506.737	33.49
507.079	34.03
507.421	34.62
507.764	35
508.106	35.44
508.448	35.94
508.79	36.46
509.132	37.02
509.474	37.5
509.816	37.91
510.158	38.38
510.499	38.77
510.841	39.21
511.183	39.5
511.525	39.88
511.866	40.32
512.208	40.63
512.549	41
512.891	41.37
513.232	41.78
513.574	42.2
513.915	42.55
514.256	42.96
514.598	43.32
514.939	43.57
515.28	43.81
515.621	44.08
515.962	44.28
516.303	44.76
516.644	45.11
516.985	45.36
517.326	45.54
517.667	45.74
518.008	45.99
518.349	46.27
518.69	46.54
519.03	46.76
519.371	47.03
519.712	47.27
520.052	47.53
520.393	47.64
520.733	47.89
521.074	48.11
521.414	48.39
521.754	48.6
522.095	48.7
522.435	48.88
522.775	48.94
523.115	49.23
523.455	49.34
523.795	49.46
524.135	49.56
524.475	49.83
524.815	49.93
525.155	50.22
525.495	50.34
525.835	50.45
526.175	50.48
526.514	50.63
526.854	50.76
527.194	50.86
527.533	51.09
527.873	51.14
528.212	51.42
528.552	51.61
528.891	51.78
529.23	51.95
529.57	52.06
529.909	52.1
530.248	52
530.587	52.23
530.927	52.33
531.266	52.45
531.605	52.48
531.944	52.62
532.283	52.84
532.621	52.95
532.96	52.93
533.299	52.89
533.638	52.83
533.977	53.09
534.315	53.18
534.654	53.33
534.992	53.39
535.331	53.44
535.67	53.56
536.008	53.71
536.346	53.84
536.685	53.73
537.023	53.68
537.361	53.82
537.7	53.78
538.038	53.77
538.376	53.8
538.714	54.07
539.052	54.06
539.39	54.15
539.728	54.19
540.066	54.13
540.404	54.19
540.741	54.33
541.079	54.54
541.417	54.46
541.755	54.59
542.092	54.57
542.43	54.42
542.767	54.37
543.105	54.33
543.442	54.42
543.78	54.5
544.117	54.49
544.454	54.43
544.792	54.44
545.129	54.62
545.466	54.75
545.803	54.71
546.14	54.82
546.477	54.92
546.814	55
547.151	54.84
547.488	54.82
547.825	54.79
548.162	54.86
548.499	54.93
548.835	54.95
549.172	54.85
549.509	54.74
549.845	54.99
550.182	55.01
550.518	55.12
550.855	55.17
551.191	55.39
551.528	55.42
551.864	55.49
552.2	55.49
552.537	55.51
552.873	55.56
553.209	55.8
553.545	55.67
553.881	55.6
554.217	55.69
554.553	55.71
554.889	55.78
555.225	55.66
555.561	55.73
555.896	55.8
556.232	55.92
556.568	56.02
556.903	56.08
557.239	56.09
557.575	56.19
557.91	56.23
558.245	56.17
558.581	56.14
558.916	56.08
559.252	56.29
559.587	56.11
559.922	56.34
560.257	56.38
560.592	56.45
560.928	56.53
561.263	56.63
561.598	56.36
561.933	56.6
562.267	56.7
562.602	56.62
562.937	56.73
563.272	56.75
563.607	56.87
563.941	57.02
564.276	57.09
564.611	57.17
564.945	57.27
565.28	57.4
565.614	57.39
565.949	57.37
566.283	57.41
566.617	57.55
566.951	57.88
567.286	58.09
567.62	58
567.954	58.12
568.288	58.08
568.622	58.01
568.956	58.03
569.29	58.14
569.624	58.08
569.958	58.19
570.292	58.19
570.626	58.28
570.959	58.48
571.293	58.54
571.627	58.65
571.96	58.6
572.294	58.5
572.627	58.51
572.961	58.48
573.294	58.49
573.627	58.48
573.961	58.53
574.294	58.67
574.627	58.83
574.961	58.91
575.294	58.89
575.627	58.91
575.96	58.88
576.293	58.75
576.626	58.76
576.959	58.88
577.292	58.91
577.624	58.81
577.957	58.91
578.29	59.01
578.623	59.02
578.955	59.07
579.288	58.93
579.62	58.89
579.953	58.86
580.285	58.95
580.618	59.11
580.95	59.09
581.282	59.14
581.615	59.21
581.947	59.29
582.279	59.35
582.611	59.29
582.943	59.09
583.275	58.97
583.607	58.91
583.939	58.79
584.271	58.74
584.603	58.96
584.935	59.05
585.267	58.99
585.598	59.04
585.93	59.26
586.262	59.3
586.593	59.25
586.925	59.25
587.256	59.11
587.588	59.09
587.919	59.1
588.25	59.18
588.582	59.26
588.913	59.29
589.244	59.35
589.575	59.38
589.907	59.39
590.238	59.28
590.569	59.36
590.9	59.45
591.231	59.68
591.562	59.69
591.892	59.71
592.223	59.88
592.554	60.14
592.885	60.19
593.215	60.2
593.546	60.13
593.877	60.1
594.207	59.98
594.538	59.84
594.868	59.81
595.198	59.73
595.529	59.77
595.859	59.8
596.189	59.88
596.52	59.85
596.85	59.83
597.18	59.7
597.51	59.7
597.84	59.84
598.17	59.84
598.5	59.85
598.83	59.81
599.16	59.85
599.489	59.85
599.819	59.96
600.149	59.84
600.479	59.73
600.808	59.54
601.138	59.45
601.467	59.26
601.797	59.35
602.126	59.26
602.456	59.3
602.785	59.42
603.114	59.38
603.443	59.49
603.773	59.53
604.102	59.63
604.431	59.47
604.76	59.42
605.089	59.46
605.418	59.48
605.747	59.5
606.076	59.26
606.405	59.14
606.733	59.2
607.062	59.13
607.391	59
607.72	58.89
608.048	58.81
608.377	58.86
608.705	58.98
609.034	59.02
609.362	59.11
609.69	59.29
610.019	59.22
610.347	59.26
610.675	59.24
611.004	59.3
611.332	59.5
611.66	59.57
611.988	59.43
612.316	59.5
612.644	59.66
612.972	59.78
613.3	59.71
613.627	59.64
613.955	59.57
614.283	59.52
614.611	59.56
614.938	59.56
615.266	59.59
615.593	59.63
615.921	59.57
616.248	59.61
616.576	59.66
616.903	59.35
617.23	59.38
617.558	59.28
617.885	59.2
618.212	59.11
618.539	59.16
618.866	58.91
619.193	58.6
619.52	58.28
619.847	58.13
620.174	58.25
620.501	57.97
620.828	57.8
621.155	57.7
621.481	57.46
621.808	57.53
622.135	57.68
622.461	57.68
622.788	57.81
623.114	57.53
623.441	57.23
623.767	57.19
624.093	57.18
624.42	57.03
624.746	57.03
625.072	57.04
625.398	57.08
625.725	57.27
626.051	57.22
626.377	57.44
626.703	57.2
627.029	57.48
627.354	57.49
627.68	57.35
628.006	57.36
628.332	57.57
628.658	57.88
628.983	57.96
629.309	57.91
629.634	58.1
629.96	57.82
630.285	57.47
630.611	57.6
630.936	57.51
631.262	57.86
631.587	58.27
631.912	58.61
632.237	58.99
632.562	59.29
632.887	59.3
633.213	59.79
633.538	60.13
633.863	59.76
634.187	59.62
634.512	59.37
634.837	59.55
635.162	59.17
635.487	59.01
635.811	59.47
636.136	59.79
636.461	59.57
636.785	59.61
637.11	59.66
637.434	59.87
637.758	59.93
638.083	60.09
638.407	60.45
638.731	60.41
639.056	60.09
639.38	59.82
639.704	60.02
640.028	59.83
640.352	59.61
640.676	59.48
641	59.12
641.324	58.58
641.648	57.98
641.972	58.44
642.295	58.54
642.619	58.53
642.943	58.32
643.266	58.66
643.59	58.63
643.913	58.57
644.237	58.06
644.56	57.85
644.884	57.62
645.207	57.79
645.53	57.37
645.854	57.81
646.177	58.14
646.5	57.71
646.823	57.93
647.146	58.23
647.469	58.33
647.792	57.89
648.115	57.53
648.438	58.07
648.761	59.95
649.084	61.03
649.406	61.14
649.729	60.54
650.052	60.09
650.374	59.89
650.697	59.75
651.019	59.76
651.342	59.58
651.664	59.7
651.987	59.82
652.309	59.89
652.631	60.05
652.953	60.07
653.276	59.89
653.598	59.96
653.92	59.86
654.242	59.8
654.564	59.96
654.886	59.84
655.208	59.83
655.53	59.82
655.851	59.77
656.173	60
656.495	59.67
656.816	58.75
657.138	58.01
657.46	57.05
657.781	56.59
658.103	56.46
658.424	56.27
658.746	56.75
659.067	56.91
659.388	57.53
659.709	57.33
660.031	56.43
660.352	55.84
660.673	54.32
660.994	54.16
661.315	54.74
661.636	54.74
