Data from T2_Reflection__49__19-23-26-218.txt Node

Date: Fri Jun 04 19:23:26 CEST 2021
User: mabdelazizm
Spectrometer: FLMS18565
Trigger mode: 0
Integration Time (sec): 2.000000E0
Scans to average: 1
Electric dark correction enabled: true
Nonlinearity correction enabled: false
Boxcar width: 12
XAxis mode: Wavelengths
Number of Pixels in Spectrum: 2048
>>>>>Begin Spectral Data<<<<<
179.071	-64.33
179.452	-38.1
179.833	-197.48
180.214	-246.15
180.595	-216.65
180.977	-329.66
181.358	-319.9
181.739	-260.89
182.12	-135.1
182.501	-225.87
182.882	-215.29
183.262	-934.29
183.643	-150.04
184.024	-80.91
184.405	-41.83
184.786	-11.28
185.166	-7.84
185.547	-0.27
185.927	5.82
186.308	-8.22
186.689	5.4
187.069	4.97
187.449	6.42
187.83	3.39
188.21	-1.94
188.59	0.95
188.971	4.35
189.351	11.62
189.731	9.36
190.111	5.57
190.491	2.83
190.871	0.65
191.251	2.99
191.631	-0.16
192.011	5.68
192.391	4.89
192.771	6.75
193.151	1.28
193.531	-0.13
193.91	0.18
194.29	-2.27
194.67	-1.34
195.049	-3.31
195.429	-6.1
195.808	-3.51
196.188	-6.75
196.567	-5.58
196.946	-6.04
197.326	-5.97
197.705	-3.86
198.084	-5.88
198.464	-8.95
198.843	-7.8
199.222	-6.78
199.601	-4.47
199.98	-6.45
200.359	-5.29
200.738	-7.42
201.117	-10.04
201.496	-14.58
201.875	-12.49
202.254	-10.04
202.632	-10.1
203.011	-8.54
203.39	-8.05
203.768	-7
204.147	-7.41
204.525	-7.22
204.904	-9.4
205.282	-7.74
205.661	-8.73
206.039	-7.35
206.418	-8.56
206.796	-7.45
207.174	-8.82
207.552	-8.56
207.931	-9.03
208.309	-10.56
208.687	-9.28
209.065	-7.42
209.443	-5.86
209.821	-7.77
210.199	-7.65
210.577	-5.34
210.954	-1.53
211.332	-2.72
211.71	-3.63
212.088	-0.81
212.465	-1.28
212.843	-0.44
213.221	0.96
213.598	1.28
213.976	-0.99
214.353	0.48
214.731	-1.11
215.108	-0.79
215.485	-1.64
215.863	-1.19
216.24	-1.33
216.617	-0.54
216.994	0.4
217.371	0.27
217.749	0.59
218.126	-0.06
218.503	-1.66
218.88	-2.62
219.256	-1.76
219.633	-0.88
220.01	-1.61
220.387	-1.96
220.764	-2.45
221.14	-2.6
221.517	-2.78
221.894	-2.32
222.27	-1.66
222.647	-2.22
223.023	-2.36
223.4	-2.03
223.776	-1.29
224.153	-1.35
224.529	-1.75
224.905	-1.57
225.282	-1.01
225.658	-1.17
226.034	-1.33
226.41	-1.05
226.786	-0.82
227.162	-0.74
227.538	-0.22
227.914	-0.22
228.29	-0.22
228.666	-0.06
229.042	-0.12
229.418	0.25
229.793	-0.11
230.169	-0
230.545	-0.36
230.92	-0.37
231.296	-0.25
231.672	-0.56
232.047	-0.48
232.422	-0.59
232.798	-0.49
233.173	-0.55
233.549	-0.39
233.924	-0
234.299	0.12
234.674	0.04
235.05	-0.03
235.425	0.01
235.8	0
236.175	0.03
236.55	0.17
236.925	0.12
237.3	0.21
237.675	0.38
238.049	0.45
238.424	0.47
238.799	0.57
239.174	0.71
239.548	0.77
239.923	0.98
240.297	0.91
240.672	0.94
241.046	1.11
241.421	1.15
241.795	1.23
242.17	1.27
242.544	1.31
242.918	1.32
243.293	1.25
243.667	1.22
244.041	1.28
244.415	1.4
244.789	1.39
245.163	1.42
245.537	1.46
245.911	1.43
246.285	1.43
246.659	1.5
247.033	1.55
247.406	1.58
247.78	1.62
248.154	1.53
248.528	1.54
248.901	1.57
249.275	1.56
249.648	1.64
250.022	1.64
250.395	1.6
250.769	1.61
251.142	1.67
251.515	1.68
251.888	1.63
252.262	1.62
252.635	1.64
253.008	1.65
253.381	1.64
253.754	1.6
254.127	1.6
254.5	1.57
254.873	1.55
255.246	1.54
255.619	1.55
255.992	1.53
256.364	1.48
256.737	1.46
257.11	1.45
257.483	1.47
257.855	1.53
258.228	1.51
258.6	1.51
258.973	1.54
259.345	1.54
259.718	1.52
260.09	1.52
260.462	1.47
260.834	1.49
261.207	1.55
261.579	1.52
261.951	1.52
262.323	1.48
262.695	1.48
263.067	1.52
263.439	1.56
263.811	1.59
264.183	1.64
264.555	1.68
264.927	1.69
265.298	1.66
265.67	1.62
266.042	1.59
266.413	1.56
266.785	1.54
267.156	1.46
267.528	1.41
267.899	1.43
268.271	1.42
268.642	1.38
269.013	1.4
269.385	1.44
269.756	1.48
270.127	1.4
270.498	1.4
270.87	1.43
271.241	1.44
271.612	1.49
271.983	1.5
272.354	1.46
272.724	1.44
273.095	1.46
273.466	1.43
273.837	1.41
274.208	1.43
274.578	1.45
274.949	1.5
275.32	1.52
275.69	1.5
276.061	1.48
276.431	1.5
276.802	1.48
277.172	1.46
277.542	1.44
277.913	1.45
278.283	1.44
278.653	1.42
279.023	1.37
279.394	1.4
279.764	1.4
280.134	1.41
280.504	1.35
280.874	1.33
281.244	1.29
281.614	1.28
281.983	1.28
282.353	1.31
282.723	1.34
283.093	1.34
283.462	1.31
283.832	1.28
284.202	1.29
284.571	1.27
284.941	1.29
285.31	1.36
285.68	1.36
286.049	1.37
286.418	1.33
286.788	1.36
287.157	1.35
287.526	1.35
287.895	1.3
288.264	1.31
288.633	1.32
289.002	1.28
289.371	1.32
289.74	1.32
290.109	1.3
290.478	1.31
290.847	1.32
291.216	1.37
291.585	1.26
291.953	1.14
292.322	1.12
292.691	1.09
293.059	1.06
293.428	1.04
293.796	1.08
294.165	1.12
294.533	1.08
294.901	1.07
295.27	1.09
295.638	1.12
296.006	1.05
296.374	1.02
296.743	0.98
297.111	1.01
297.479	1.02
297.847	1.02
298.215	1.01
298.583	0.98
298.95	0.97
299.318	1
299.686	1.01
300.054	1.01
300.422	0.97
300.789	1
301.157	1.06
301.525	1.04
301.892	1.04
302.26	1.03
302.627	1.06
302.994	1.05
303.362	1.04
303.729	1.05
304.097	1.05
304.464	1.02
304.831	1.01
305.198	1.03
305.565	1.09
305.932	1.07
306.299	1.04
306.666	1.02
307.033	1.01
307.4	1.04
307.767	0.99
308.134	0.97
308.501	1
308.867	0.99
309.234	0.98
309.601	1
309.967	1
310.334	1.05
310.701	1.05
311.067	1.08
311.433	1.17
311.8	1.12
312.166	1.14
312.533	1.11
312.899	1.1
313.265	1.14
313.631	1.19
313.997	1.19
314.363	1.15
314.729	1.13
315.096	1.16
315.461	1.16
315.827	1.17
316.193	1.18
316.559	1.17
316.925	1.21
317.291	1.23
317.656	1.21
318.022	1.19
318.388	1.23
318.753	1.22
319.119	1.24
319.484	1.24
319.85	1.27
320.215	1.27
320.581	1.24
320.946	1.26
321.311	1.24
321.676	1.22
322.042	1.24
322.407	1.18
322.772	1.18
323.137	1.2
323.502	1.31
323.867	1.35
324.232	1.34
324.597	1.35
324.962	1.32
325.327	1.35
325.691	1.37
326.056	1.39
326.421	1.38
326.785	1.36
327.15	1.36
327.514	1.26
327.879	1.25
328.243	1.25
328.608	1.26
328.972	1.29
329.337	1.24
329.701	1.18
330.065	1.16
330.429	1.2
330.794	1.25
331.158	1.22
331.522	1.21
331.886	1.13
332.25	1.1
332.614	1.06
332.978	1.01
333.342	1.04
333.705	1.02
334.069	1.02
334.433	0.95
334.797	0.93
335.16	0.9
335.524	0.89
335.887	0.9
336.251	0.91
336.614	0.93
336.978	0.93
337.341	0.88
337.705	0.8
338.068	0.8
338.431	0.84
338.794	0.81
339.158	0.82
339.521	0.74
339.884	0.68
340.247	0.68
340.61	0.75
340.973	0.83
341.336	0.82
341.699	0.75
342.062	0.77
342.424	0.7
342.787	0.72
343.15	0.74
343.512	0.76
343.875	0.76
344.238	0.78
344.6	0.77
344.963	0.76
345.325	0.7
345.688	0.73
346.05	0.73
346.412	0.76
346.775	0.8
347.137	0.73
347.499	0.74
347.861	0.82
348.223	0.81
348.585	0.81
348.947	0.82
349.309	0.8
349.671	0.8
350.033	0.75
350.395	0.76
350.757	0.79
351.118	0.72
351.48	0.74
351.842	0.77
352.203	0.79
352.565	0.71
352.927	0.73
353.288	0.72
353.65	0.65
354.011	0.67
354.372	0.74
354.734	0.76
355.095	0.78
355.456	0.84
355.817	0.85
356.179	0.87
356.54	0.87
356.901	0.8
357.262	0.84
357.623	0.88
357.984	0.97
358.345	1.04
358.705	1.02
359.066	1.05
359.427	1.09
359.788	1.07
360.148	1.12
360.509	1.19
360.87	1.17
361.23	1.15
361.591	1.22
361.951	1.18
362.312	1.18
362.672	1.29
363.032	1.26
363.393	1.24
363.753	1.18
364.113	1.11
364.473	1.04
364.833	1.05
365.193	1.06
365.553	1.04
365.913	1.06
366.273	0.95
366.633	0.93
366.993	0.81
367.353	0.71
367.713	0.69
368.072	0.69
368.432	0.67
368.792	0.63
369.151	0.61
369.511	0.59
369.87	0.56
370.23	0.6
370.589	0.65
370.949	0.64
371.308	0.61
371.667	0.6
372.027	0.59
372.386	0.59
372.745	0.56
373.104	0.63
373.463	0.61
373.822	0.58
374.181	0.55
374.54	0.57
374.899	0.62
375.258	0.71
375.617	0.7
375.975	0.71
376.334	0.77
376.693	0.86
377.052	0.87
377.41	0.85
377.769	0.92
378.127	0.93
378.486	0.85
378.844	0.85
379.202	0.78
379.561	0.7
379.919	0.7
380.277	0.74
380.636	0.71
380.994	0.69
381.352	0.66
381.71	0.67
382.068	0.64
382.426	0.64
382.784	0.68
383.142	0.67
383.5	0.67
383.857	0.62
384.215	0.61
384.573	0.54
384.931	0.56
385.288	0.49
385.646	0.41
386.003	0.36
386.361	0.36
386.718	0.34
387.076	0.35
387.433	0.32
387.791	0.33
388.148	0.36
388.505	0.37
388.862	0.41
389.22	0.43
389.577	0.46
389.934	0.51
390.291	0.52
390.648	0.55
391.005	0.61
391.362	0.59
391.718	0.58
392.075	0.54
392.432	0.58
392.789	0.59
393.145	0.58
393.502	0.62
393.859	0.63
394.215	0.7
394.572	0.67
394.928	0.67
395.285	0.67
395.641	0.67
395.997	0.68
396.354	0.76
396.71	0.81
397.066	0.79
397.422	0.91
397.778	0.9
398.134	0.92
398.491	0.82
398.846	0.79
399.202	0.86
399.558	0.82
399.914	0.8
400.27	0.82
400.626	0.76
400.981	0.76
401.337	0.76
401.693	0.81
402.048	0.82
402.404	0.86
402.759	0.88
403.115	0.82
403.47	0.91
403.826	0.98
404.181	0.97
404.536	0.89
404.892	0.84
405.247	0.82
405.602	0.74
405.957	0.78
406.312	0.67
406.667	0.63
407.022	0.59
407.377	0.7
407.732	0.75
408.087	0.62
408.442	0.65
408.796	0.63
409.151	0.7
409.506	0.8
409.86	0.79
410.215	0.68
410.57	0.63
410.924	0.63
411.279	0.58
411.633	0.55
411.987	0.55
412.342	0.53
412.696	0.48
413.05	0.5
413.404	0.61
413.758	0.72
414.113	0.77
414.467	0.85
414.821	0.8
415.175	0.87
415.529	0.87
415.882	0.9
416.236	0.85
416.59	0.81
416.944	0.91
417.298	0.98
417.651	0.99
418.005	0.99
418.358	0.97
418.712	1.02
419.065	1.01
419.419	1.04
419.772	1
420.126	1.1
420.479	1.18
420.832	1.14
421.185	1.17
421.539	1.14
421.892	1.11
422.245	1.08
422.598	1.05
422.951	1.03
423.304	1.02
423.657	1.03
424.01	1.02
424.363	1.02
424.715	1.01
425.068	0.99
425.421	1
425.773	0.92
426.126	1.01
426.479	1.05
426.831	1.03
427.184	0.96
427.536	0.99
427.889	1.04
428.241	1.07
428.593	1.13
428.945	1.11
429.298	1.11
429.65	1.15
430.002	1.14
430.354	1.27
430.706	1.28
431.058	1.29
431.41	1.25
431.762	1.21
432.114	1.25
432.466	1.28
432.817	1.3
433.169	1.37
433.521	1.35
433.872	1.4
434.224	1.41
434.576	1.43
434.927	1.34
435.279	1.17
435.63	1.21
435.981	1.29
436.333	1.27
436.684	1.37
437.035	1.33
437.387	1.31
437.738	1.33
438.089	1.36
438.44	1.38
438.791	1.29
439.142	1.21
439.493	1.27
439.844	1.28
440.195	1.39
440.545	1.51
440.896	1.52
441.247	1.59
441.598	1.51
441.948	1.5
442.299	1.45
442.649	1.47
443	1.49
443.35	1.5
443.701	1.49
444.051	1.58
444.401	1.53
444.752	1.5
445.102	1.49
445.452	1.39
445.802	1.33
446.152	1.34
446.502	1.32
446.852	1.22
447.202	1.23
447.552	1.26
447.902	1.34
448.252	1.32
448.602	1.72
448.952	1.65
449.301	1.58
449.651	1.56
450.001	1.45
450.35	1.48
450.7	1.4
451.049	1.5
451.399	1.54
451.748	1.51
452.097	1.72
452.447	1.67
452.796	1.69
453.145	1.78
453.494	1.82
453.843	1.86
454.193	1.98
454.542	2.08
454.891	2.2
455.239	2.13
455.588	2.19
455.937	2.13
456.286	2.16
456.635	2.05
456.984	2.06
457.332	1.63
457.681	1.65
458.03	1.76
458.378	1.7
458.727	1.87
459.075	1.88
459.423	2.04
459.772	1.98
460.12	1.92
460.468	1.88
460.817	1.77
461.165	1.82
461.513	1.81
461.861	1.78
462.209	1.81
462.557	1.87
462.905	1.72
463.253	1.72
463.601	1.72
463.949	1.74
464.297	1.76
464.644	1.88
464.992	1.91
465.34	1.95
465.687	2.01
466.035	1.95
466.383	1.95
466.73	1.85
467.078	1.95
467.425	1.87
467.772	1.91
468.12	1.83
468.467	1.8
468.814	1.9
469.161	1.93
469.508	1.99
469.856	2
470.203	1.97
470.55	1.94
470.897	1.92
471.243	1.76
471.59	1.82
471.937	1.83
472.284	1.78
472.631	1.75
472.977	1.78
473.324	1.76
473.671	1.67
474.017	1.74
474.364	1.66
474.71	1.73
475.057	1.75
475.403	1.78
475.749	1.75
476.096	1.76
476.442	1.79
476.788	1.78
477.134	1.82
477.48	1.8
477.826	1.8
478.172	1.68
478.518	1.7
478.864	1.77
479.21	1.86
479.556	1.88
479.902	2.01
480.248	2.08
480.593	2.05
480.939	2.01
481.285	2.06
481.63	2.07
481.976	2.11
482.321	2.18
482.667	2.19
483.012	2.23
483.357	2.3
483.703	2.31
484.048	2.37
484.393	2.46
484.738	2.5
485.084	2.5
485.429	2.54
485.774	2.62
486.119	2.67
486.464	2.77
486.808	2.9
487.153	2.9
487.498	2.99
487.843	3.02
488.188	3.13
488.532	3.27
488.877	3.36
489.222	3.51
489.566	3.72
489.911	3.93
490.255	4.12
490.6	4.33
490.944	4.54
491.288	4.72
491.633	4.95
491.977	5.13
492.321	5.39
492.665	5.62
493.009	5.88
493.353	6.15
493.697	6.43
494.041	6.72
494.385	7.02
494.729	7.22
495.073	7.54
495.417	7.9
495.76	8.28
496.104	8.58
496.448	8.92
496.791	9.32
497.135	9.59
497.479	10.05
497.822	10.43
498.165	10.82
498.509	11.17
498.852	11.54
499.196	11.91
499.539	12.33
499.882	12.72
500.225	13.14
500.568	13.54
500.911	13.86
501.254	14.27
501.597	14.63
501.94	15.02
502.283	15.39
502.626	15.78
502.969	16.07
503.312	16.48
503.654	16.78
503.997	17.08
504.34	17.41
504.682	17.77
505.025	18.12
505.367	18.39
505.71	18.63
506.052	18.84
506.395	19.17
506.737	19.49
507.079	19.77
507.421	20.11
507.764	20.35
508.106	20.54
508.448	20.86
508.79	21.07
509.132	21.35
509.474	21.66
509.816	21.83
510.158	22.01
510.499	22.21
510.841	22.45
511.183	22.65
511.525	22.95
511.866	23.22
512.208	23.44
512.549	23.58
512.891	23.91
513.232	24.15
513.574	24.38
513.915	24.55
514.256	24.88
514.598	25.13
514.939	25.32
515.28	25.42
515.621	25.59
515.962	25.69
516.303	25.97
516.644	26.15
516.985	26.23
517.326	26.47
517.667	26.62
518.008	26.76
518.349	26.91
518.69	27.16
519.03	27.36
519.371	27.55
519.712	27.7
520.052	27.85
520.393	27.95
520.733	28.16
521.074	28.46
521.414	28.6
521.754	28.65
522.095	28.78
522.435	28.94
522.775	29.05
523.115	29.27
523.455	29.35
523.795	29.5
524.135	29.72
524.475	29.87
524.815	29.88
525.155	30.07
525.495	30.25
525.835	30.23
526.175	30.35
526.514	30.41
526.854	30.51
527.194	30.49
527.533	30.6
527.873	30.6
528.212	30.71
528.552	30.91
528.891	31.01
529.23	31.05
529.57	31.07
529.909	31.08
530.248	31.19
530.587	31.27
530.927	31.33
531.266	31.33
531.605	31.28
531.944	31.33
532.283	31.36
532.621	31.35
532.96	31.54
533.299	31.68
533.638	31.77
533.977	31.78
534.315	31.93
534.654	31.86
534.992	32.07
535.331	32.09
535.67	32.22
536.008	32.3
536.346	32.47
536.685	32.36
537.023	32.26
537.361	32.41
537.7	32.41
538.038	32.35
538.376	32.4
538.714	32.4
539.052	32.44
539.39	32.47
539.728	32.5
540.066	32.47
540.404	32.47
540.741	32.51
541.079	32.49
541.417	32.38
541.755	32.37
542.092	32.4
542.43	32.3
542.767	32.32
543.105	32.38
543.442	32.3
543.78	32.43
544.117	32.45
544.454	32.38
544.792	32.31
545.129	32.49
545.466	32.51
545.803	32.46
546.14	32.55
546.477	32.66
546.814	32.71
547.151	32.62
547.488	32.6
547.825	32.65
548.162	32.82
548.499	32.93
548.835	33.08
549.172	33.12
549.509	33.25
549.845	33.33
550.182	33.3
550.518	33.28
550.855	33.55
551.191	33.58
551.528	33.6
551.864	33.61
552.2	33.58
552.537	33.49
552.873	33.43
553.209	33.52
553.545	33.46
553.881	33.51
554.217	33.44
554.553	33.47
554.889	33.59
555.225	33.52
555.561	33.86
555.896	33.84
556.232	33.83
556.568	33.92
556.903	33.82
557.239	33.79
557.575	33.88
557.91	33.79
558.245	33.84
558.581	33.86
558.916	33.83
559.252	33.81
559.587	33.83
559.922	33.8
560.257	33.98
560.592	34
560.928	34.15
561.263	34.37
561.598	34.31
561.933	34.34
562.267	34.45
562.602	34.6
562.937	34.64
563.272	34.56
563.607	34.51
563.941	34.49
564.276	34.67
564.611	34.77
564.945	34.74
565.28	34.93
565.614	34.79
565.949	34.84
566.283	34.94
566.617	35.04
566.951	35.32
567.286	35.43
567.62	35.31
567.954	35.39
568.288	35.47
568.622	35.25
568.956	35.24
569.29	35.33
569.624	35.26
569.958	35.19
570.292	35.19
570.626	35.2
570.959	35.18
571.293	35.21
571.627	35.29
571.96	35.39
572.294	35.34
572.627	35.22
572.961	35.19
573.294	35.19
573.627	35.22
573.961	35.31
574.294	35.26
574.627	35.37
574.961	35.41
575.294	35.32
575.627	35.38
575.96	35.47
576.293	35.39
576.626	35.41
576.959	35.58
577.292	35.63
577.624	35.56
577.957	35.59
578.29	35.79
578.623	35.87
578.955	35.9
579.288	35.95
579.62	35.93
579.953	35.87
580.285	35.81
580.618	35.88
580.95	36.1
581.282	36.18
581.615	36.18
581.947	36.09
582.279	36.16
582.611	36.14
582.943	36.07
583.275	36.01
583.607	36.18
583.939	36.05
584.271	36.02
584.603	36.03
584.935	36.06
585.267	35.96
585.598	36.05
585.93	36.1
586.262	36.19
586.593	36.18
586.925	36.16
587.256	36.09
587.588	36.08
587.919	36.13
588.25	36.22
588.582	36.31
588.913	36.33
589.244	36.27
589.575	36.25
589.907	36.17
590.238	36.15
590.569	36.13
590.9	36.28
591.231	36.3
591.562	36.3
591.892	36.08
592.223	36.13
592.554	36.35
592.885	36.46
593.215	36.49
593.546	36.46
593.877	36.4
594.207	36.31
594.538	36.23
594.868	36.17
595.198	36.13
595.529	36.1
595.859	36
596.189	36.08
596.52	36.08
596.85	36.11
597.18	36.02
597.51	35.95
597.84	35.88
598.17	35.99
598.5	36.04
598.83	36.04
599.16	36.05
599.489	36.05
599.819	36.05
600.149	36.07
600.479	36.19
600.808	35.91
601.138	36.03
601.467	35.96
601.797	36
602.126	35.9
602.456	36.06
602.785	36.2
603.114	36.09
603.443	36.23
603.773	36.42
604.102	36.59
604.431	36.49
604.76	36.39
605.089	36.34
605.418	36.38
605.747	36.42
606.076	36.52
606.405	36.4
606.733	36.47
607.062	36.52
607.391	36.46
607.72	36.45
608.048	36.48
608.377	36.42
608.705	36.5
609.034	36.64
609.362	36.46
609.69	36.54
610.019	36.54
610.347	36.64
610.675	36.6
611.004	36.7
611.332	36.88
611.66	36.98
611.988	36.85
612.316	36.86
612.644	36.81
612.972	36.96
613.3	37.01
613.627	37.08
613.955	37.02
614.283	36.94
614.611	37.11
614.938	37.31
615.266	37.31
615.593	37.51
615.921	37.4
616.248	37.39
616.576	37.47
616.903	37.29
617.23	37.21
617.558	37.25
617.885	37.26
618.212	37.3
618.539	37.43
618.866	37.16
619.193	36.66
619.52	36.52
619.847	36.51
620.174	36.41
620.501	36.39
620.828	36.48
621.155	36.48
621.481	36.27
621.808	36.44
622.135	36.44
622.461	36.35
622.788	36.5
623.114	36.17
623.441	35.97
623.767	35.63
624.093	35.75
624.42	35.78
624.746	35.89
625.072	35.83
625.398	36.09
625.725	36.04
626.051	35.85
626.377	35.85
626.703	35.5
627.029	35.65
627.354	35.76
627.68	35.83
628.006	35.54
628.332	35.6
628.658	35.56
628.983	35.4
629.309	35.6
629.634	35.67
629.96	35.35
630.285	35.26
630.611	35.35
630.936	35.07
631.262	35.55
631.587	36.09
631.912	36.36
632.237	36.6
632.562	37.03
632.887	37.12
633.213	37.18
633.538	37.31
633.863	37.31
634.187	37.01
634.512	37.16
634.837	37.32
635.162	37.53
635.487	37.41
635.811	37.89
636.136	38.06
636.461	37.52
636.785	37.42
637.11	37.75
637.434	37.43
637.758	37.92
638.083	37.89
638.407	38.42
638.731	38.33
639.056	38.18
639.38	38.09
639.704	38.02
640.028	38
640.352	37.88
640.676	37.69
641	37.42
641.324	37.11
641.648	36.4
641.972	36.22
642.295	36.97
642.619	36.85
642.943	36.89
643.266	36.66
643.59	36.89
643.913	36.32
644.237	36.03
644.56	36.54
644.884	36.81
645.207	36.67
645.53	36.77
645.854	36.69
646.177	37.16
646.5	36.68
646.823	36.77
647.146	36.9
647.469	36.34
647.792	35.8
648.115	35.71
648.438	35.87
648.761	37.12
649.084	37.78
649.406	38.21
649.729	37.63
650.052	37.51
650.374	37.04
650.697	36.86
651.019	36.77
651.342	36.7
651.664	36.79
651.987	36.73
652.309	36.87
652.631	36.86
652.953	36.71
653.276	36.62
653.598	36.54
653.92	36.49
654.242	36.33
654.564	36.45
654.886	36.39
655.208	36.4
655.53	36.51
655.851	36.56
656.173	36.67
656.495	36.66
656.816	35.98
657.138	35.41
657.46	34.45
657.781	34.37
658.103	33.75
658.424	34.37
658.746	35.04
659.067	35.33
659.388	35.99
659.709	35.51
660.031	35.13
660.352	34.17
660.673	33.6
660.994	33.84
661.315	34.3
661.636	35.09
661.957	34.41
662.278	34.81
662.599	34.43
662.919	34.07
