Data from T2_Reflection__117__20-13-22-120.txt Node

Date: Fri Jun 04 20:13:22 CEST 2021
User: mabdelazizm
Spectrometer: FLMS18565
Trigger mode: 0
Integration Time (sec): 2.000000E0
Scans to average: 1
Electric dark correction enabled: true
Nonlinearity correction enabled: false
Boxcar width: 12
XAxis mode: Wavelengths
Number of Pixels in Spectrum: 2048
>>>>>Begin Spectral Data<<<<<
179.071	-166.41
179.452	-102.73
179.833	-288.84
180.214	-334.62
180.595	-290.01
180.977	-472.24
181.358	-412.91
181.739	-347.49
182.12	-234.24
182.501	-273.66
182.882	-299.42
183.262	-1131.43
183.643	-237.3
184.024	-161.09
184.405	-89.46
184.786	-47.22
185.166	-47.82
185.547	-28.15
185.927	-22.28
186.308	-36.39
186.689	-27.89
187.069	-27.6
187.449	-31.36
187.83	-40.25
188.21	-45.25
188.59	-35.36
188.971	-35.08
189.351	-26.71
189.731	-23.82
190.111	-24.61
190.491	-22.53
190.871	-20.76
191.251	-18.73
191.631	-17.91
192.011	-14.93
192.391	-15.13
192.771	-12.25
193.151	-12.18
193.531	-12.01
193.91	-9.54
194.29	-10.77
194.67	-7.3
195.049	-10.5
195.429	-8.26
195.808	-5.61
196.188	-5.66
196.567	-5.64
196.946	-1.52
197.326	0.95
197.705	3.98
198.084	0.3
198.464	-2.76
198.843	-2.84
199.222	-3.72
199.601	-4.1
199.98	-6.51
200.359	-5.87
200.738	-3.7
201.117	-5.81
201.496	-10.23
201.875	-9.02
202.254	-9.28
202.632	-10.38
203.011	-9.27
203.39	-10.52
203.768	-9.55
204.147	-8.19
204.525	-8.49
204.904	-10.26
205.282	-8.88
205.661	-10.65
206.039	-10.84
206.418	-15.04
206.796	-14
207.174	-14.58
207.552	-12.64
207.931	-12.79
208.309	-13.47
208.687	-14.41
209.065	-11.54
209.443	-12.65
209.821	-15.28
210.199	-18.68
210.577	-19.44
210.954	-14.6
211.332	-17.1
211.71	-18.53
212.088	-17.14
212.465	-16.43
212.843	-15.6
213.221	-14.92
213.598	-14.04
213.976	-14.85
214.353	-14.36
214.731	-16.15
215.108	-14.04
215.485	-13.46
215.863	-11.46
216.24	-13.47
216.617	-14.3
216.994	-12.05
217.371	-9.71
217.749	-9.26
218.126	-9.54
218.503	-10.13
218.88	-10.77
219.256	-10.59
219.633	-9.45
220.01	-8.05
220.387	-7.81
220.764	-7.04
221.14	-5.23
221.517	-5.3
221.894	-5.39
222.27	-4.88
222.647	-5.17
223.023	-5.86
223.4	-5.2
223.776	-4.53
224.153	-4.74
224.529	-4.33
224.905	-3.02
225.282	-2.71
225.658	-2.11
226.034	-1.88
226.41	-1.96
226.786	-2.17
227.162	-1.74
227.538	-1.3
227.914	-1.17
228.29	-0.56
228.666	-0.64
229.042	-0.6
229.418	-0.5
229.793	-0.71
230.169	-0.7
230.545	-1.09
230.92	-1.12
231.296	-1.07
231.672	-0.99
232.047	-0.94
232.422	-1.07
232.798	-0.94
233.173	-1.04
233.549	-0.83
233.924	-0.81
234.299	-0.95
234.674	-0.88
235.05	-1
235.425	-0.97
235.8	-0.94
236.175	-0.97
236.55	-0.93
236.925	-0.85
237.3	-0.81
237.675	-0.73
238.049	-0.68
238.424	-0.66
238.799	-0.54
239.174	-0.4
239.548	-0.22
239.923	-0.09
240.297	-0.12
240.672	-0.12
241.046	-0.21
241.421	-0.15
241.795	-0.05
242.17	-0.13
242.544	-0.02
242.918	-0.01
243.293	-0.09
243.667	-0.14
244.041	-0.09
244.415	0.01
244.789	0.06
245.163	0.06
245.537	0.09
245.911	0.14
246.285	0.16
246.659	0.2
247.033	0.22
247.406	0.23
247.78	0.21
248.154	0.12
248.528	0.13
248.901	0.07
249.275	0.06
249.648	0.16
250.022	0.17
250.395	0.19
250.769	0.13
251.142	0.15
251.515	0.24
251.888	0.23
252.262	0.32
252.635	0.39
253.008	0.44
253.381	0.41
253.754	0.44
254.127	0.42
254.5	0.4
254.873	0.4
255.246	0.36
255.619	0.35
255.992	0.31
256.364	0.28
256.737	0.32
257.11	0.38
257.483	0.4
257.855	0.39
258.228	0.43
258.6	0.45
258.973	0.49
259.345	0.53
259.718	0.53
260.09	0.54
260.462	0.5
260.834	0.49
261.207	0.48
261.579	0.44
261.951	0.45
262.323	0.4
262.695	0.42
263.067	0.39
263.439	0.45
263.811	0.46
264.183	0.47
264.555	0.51
264.927	0.5
265.298	0.5
265.67	0.49
266.042	0.45
266.413	0.37
266.785	0.34
267.156	0.31
267.528	0.27
267.899	0.26
268.271	0.19
268.642	0.09
269.013	0.12
269.385	0.13
269.756	0.11
270.127	0.05
270.498	0.06
270.87	0.05
271.241	0
271.612	-0
271.983	-0.03
272.354	-0.07
272.724	-0.12
273.095	-0.12
273.466	-0.16
273.837	-0.18
274.208	-0.21
274.578	-0.2
274.949	-0.17
275.32	-0.15
275.69	-0.16
276.061	-0.17
276.431	-0.15
276.802	-0.19
277.172	-0.17
277.542	-0.18
277.913	-0.12
278.283	-0.15
278.653	-0.1
279.023	-0.11
279.394	-0.05
279.764	-0.04
280.134	-0.03
280.504	-0.04
280.874	-0.07
281.244	-0.05
281.614	-0.03
281.983	-0.08
282.353	-0.05
282.723	0.02
283.093	0.03
283.462	0.11
283.832	0.12
284.202	0.1
284.571	0.13
284.941	0.15
285.31	0.21
285.68	0.22
286.049	0.22
286.418	0.2
286.788	0.29
287.157	0.29
287.526	0.27
287.895	0.25
288.264	0.29
288.633	0.24
289.002	0.19
289.371	0.23
289.74	0.21
290.109	0.27
290.478	0.21
290.847	0.23
291.216	0.25
291.585	0.2
291.953	0.11
292.322	0.07
292.691	-0.01
293.059	-0.05
293.428	-0.07
293.796	-0.07
294.165	-0.05
294.533	-0.1
294.901	-0.08
295.27	-0.03
295.638	-0.04
296.006	-0.12
296.374	-0.17
296.743	-0.13
297.111	-0.21
297.479	-0.24
297.847	-0.24
298.215	-0.25
298.583	-0.28
298.95	-0.28
299.318	-0.3
299.686	-0.3
300.054	-0.34
300.422	-0.31
300.789	-0.31
301.157	-0.27
301.525	-0.27
301.892	-0.26
302.26	-0.27
302.627	-0.22
302.994	-0.26
303.362	-0.21
303.729	-0.18
304.097	-0.23
304.464	-0.27
304.831	-0.24
305.198	-0.24
305.565	-0.23
305.932	-0.31
306.299	-0.29
306.666	-0.29
307.033	-0.26
307.4	-0.22
307.767	-0.28
308.134	-0.26
308.501	-0.29
308.867	-0.29
309.234	-0.26
309.601	-0.26
309.967	-0.32
310.334	-0.3
310.701	-0.32
311.067	-0.27
311.433	-0.22
311.8	-0.32
312.166	-0.32
312.533	-0.41
312.899	-0.42
313.265	-0.42
313.631	-0.39
313.997	-0.44
314.363	-0.45
314.729	-0.41
315.096	-0.36
315.461	-0.34
315.827	-0.32
316.193	-0.34
316.559	-0.37
316.925	-0.35
317.291	-0.33
317.656	-0.34
318.022	-0.34
318.388	-0.34
318.753	-0.35
319.119	-0.3
319.484	-0.28
319.85	-0.27
320.215	-0.24
320.581	-0.24
320.946	-0.21
321.311	-0.21
321.676	-0.18
322.042	-0.23
322.407	-0.26
322.772	-0.24
323.137	-0.2
323.502	-0.12
323.867	-0.09
324.232	-0.17
324.597	-0.18
324.962	-0.22
325.327	-0.19
325.691	-0.21
326.056	-0.22
326.421	-0.25
326.785	-0.23
327.15	-0.23
327.514	-0.25
327.879	-0.21
328.243	-0.23
328.608	-0.28
328.972	-0.24
329.337	-0.37
329.701	-0.43
330.065	-0.41
330.429	-0.34
330.794	-0.3
331.158	-0.24
331.522	-0.25
331.886	-0.3
332.25	-0.35
332.614	-0.4
332.978	-0.45
333.342	-0.38
333.705	-0.39
334.069	-0.4
334.433	-0.44
334.797	-0.4
335.16	-0.41
335.524	-0.36
335.887	-0.33
336.251	-0.33
336.614	-0.39
336.978	-0.45
337.341	-0.47
337.705	-0.49
338.068	-0.45
338.431	-0.41
338.794	-0.42
339.158	-0.42
339.521	-0.47
339.884	-0.58
340.247	-0.58
340.61	-0.56
340.973	-0.58
341.336	-0.57
341.699	-0.65
342.062	-0.69
342.424	-0.72
342.787	-0.72
343.15	-0.7
343.512	-0.68
343.875	-0.75
344.238	-0.71
344.6	-0.81
344.963	-0.8
345.325	-0.82
345.688	-0.78
346.05	-0.79
346.412	-0.77
346.775	-0.81
347.137	-0.91
347.499	-0.9
347.861	-0.85
348.223	-0.85
348.585	-0.87
348.947	-0.82
349.309	-0.88
349.671	-0.83
350.033	-0.84
350.395	-0.85
350.757	-0.83
351.118	-0.87
351.48	-0.84
351.842	-0.82
352.203	-0.81
352.565	-0.85
352.927	-0.81
353.288	-0.88
353.65	-0.87
354.011	-0.92
354.372	-0.83
354.734	-0.8
355.095	-0.77
355.456	-0.77
355.817	-0.71
356.179	-0.7
356.54	-0.7
356.901	-0.76
357.262	-0.8
357.623	-0.83
357.984	-0.73
358.345	-0.72
358.705	-0.75
359.066	-0.77
359.427	-0.76
359.788	-0.73
360.148	-0.65
360.509	-0.64
360.87	-0.58
361.23	-0.6
361.591	-0.55
361.951	-0.6
362.312	-0.59
362.672	-0.52
363.032	-0.5
363.393	-0.56
363.753	-0.63
364.113	-0.66
364.473	-0.66
364.833	-0.66
365.193	-0.66
365.553	-0.64
365.913	-0.65
366.273	-0.64
366.633	-0.61
366.993	-0.73
367.353	-0.8
367.713	-0.79
368.072	-0.81
368.432	-0.81
368.792	-0.82
369.151	-0.87
369.511	-0.85
369.87	-0.95
370.23	-0.84
370.589	-0.82
370.949	-0.84
371.308	-0.85
371.667	-0.85
372.027	-0.88
372.386	-0.91
372.745	-0.92
373.104	-0.91
373.463	-0.89
373.822	-0.91
374.181	-0.9
374.54	-0.91
374.899	-0.85
375.258	-0.89
375.617	-0.86
375.975	-0.81
376.334	-0.7
376.693	-0.7
377.052	-0.66
377.41	-0.67
377.769	-0.63
378.127	-0.57
378.486	-0.61
378.844	-0.6
379.202	-0.69
379.561	-0.75
379.919	-0.66
380.277	-0.66
380.636	-0.76
380.994	-0.78
381.352	-0.79
381.71	-0.75
382.068	-0.7
382.426	-0.7
382.784	-0.72
383.142	-0.7
383.5	-0.69
383.857	-0.66
384.215	-0.63
384.573	-0.71
384.931	-0.7
385.288	-0.79
385.646	-0.82
386.003	-0.84
386.361	-0.8
386.718	-0.83
387.076	-0.87
387.433	-0.9
387.791	-0.83
388.148	-0.85
388.505	-0.85
388.862	-0.88
389.22	-0.85
389.577	-0.72
389.934	-0.7
390.291	-0.65
390.648	-0.65
391.005	-0.69
391.362	-0.71
391.718	-0.7
392.075	-0.76
392.432	-0.73
392.789	-0.82
393.145	-0.8
393.502	-0.8
393.859	-0.76
394.215	-0.67
394.572	-0.67
394.928	-0.7
395.285	-0.69
395.641	-0.68
395.997	-0.66
396.354	-0.66
396.71	-0.67
397.066	-0.67
397.422	-0.57
397.778	-0.6
398.134	-0.6
398.491	-0.69
398.846	-0.71
399.202	-0.73
399.558	-0.8
399.914	-0.77
400.27	-0.81
400.626	-0.81
400.981	-0.82
401.337	-0.84
401.693	-0.79
402.048	-0.85
402.404	-0.79
402.759	-0.91
403.115	-0.93
403.47	-0.95
403.826	-0.93
404.181	-1.02
404.536	-1.09
404.892	-1.11
405.247	-1.07
405.602	-1.1
405.957	-1.08
406.312	-1.19
406.667	-1.16
407.022	-1.19
407.377	-1.13
407.732	-1.1
408.087	-1.14
408.442	-1.04
408.796	-1.11
409.151	-1.07
409.506	-1
409.86	-0.99
410.215	-1.03
410.57	-1.07
410.924	-1.03
411.279	-1.06
411.633	-1.03
411.987	-1.02
412.342	-0.94
412.696	-0.89
413.05	-0.79
413.404	-0.71
413.758	-0.62
414.113	-0.63
414.467	-0.57
414.821	-0.54
415.175	-0.47
415.529	-0.52
415.882	-0.49
416.236	-0.56
416.59	-0.52
416.944	-0.47
417.298	-0.38
417.651	-0.31
418.005	-0.25
418.358	-0.19
418.712	-0.14
419.065	-0.18
419.419	-0.13
419.772	-0.17
420.126	-0.09
420.479	-0.02
420.832	-0.05
421.185	-0
421.539	-0.04
421.892	-0.07
422.245	-0.07
422.598	-0.11
422.951	-0.07
423.304	-0.11
423.657	-0.15
424.01	-0.15
424.363	-0.09
424.715	-0.03
425.068	0.03
425.421	0.05
425.773	0.06
426.126	0.09
426.479	0.11
426.831	0.05
427.184	-0.04
427.536	-0.05
427.889	-0.01
428.241	0.02
428.593	0.13
428.945	0.09
429.298	0.1
429.65	0.13
430.002	0.04
430.354	0.18
430.706	0.24
431.058	0.28
431.41	0.25
431.762	0.16
432.114	0.18
432.466	0.24
432.817	0.3
433.169	0.35
433.521	0.27
433.872	0.32
434.224	0.29
434.576	0.29
434.927	0.19
435.279	0.12
435.63	0.21
435.981	0.27
436.333	0.32
436.684	0.41
437.035	0.38
437.387	0.39
437.738	0.41
438.089	0.41
438.44	0.36
438.791	0.35
439.142	0.28
439.493	0.27
439.844	0.26
440.195	0.3
440.545	0.43
440.896	0.52
441.247	0.58
441.598	0.51
441.948	0.49
442.299	0.52
442.649	0.54
443	0.55
443.35	0.54
443.701	0.57
444.051	0.61
444.401	0.53
444.752	0.51
445.102	0.5
445.452	0.47
445.802	0.5
446.152	0.5
446.502	0.54
446.852	0.41
447.202	0.54
447.552	0.58
447.902	0.6
448.252	0.51
448.602	1.02
448.952	1.04
449.301	0.96
449.651	0.89
450.001	0.8
450.35	0.85
450.7	0.86
451.049	0.91
451.399	0.92
451.748	0.97
452.097	1.13
452.447	1.01
452.796	1.03
453.145	1.15
453.494	1.17
453.843	1.22
454.193	1.3
454.542	1.28
454.891	1.3
455.239	1.21
455.588	1.41
455.937	1.32
456.286	1.38
456.635	1.35
456.984	1.45
457.332	0.92
457.681	0.94
458.03	1.06
458.378	0.95
458.727	1
459.075	0.97
459.423	1.12
459.772	1.11
460.12	1.09
460.468	1.08
460.817	1.07
461.165	1.22
461.513	1.26
461.861	1.29
462.209	1.33
462.557	1.33
462.905	1.21
463.253	1.32
463.601	1.39
463.949	1.42
464.297	1.36
464.644	1.46
464.992	1.4
465.34	1.41
465.687	1.44
466.035	1.3
466.383	1.33
466.73	1.27
467.078	1.32
467.425	1.28
467.772	1.38
468.12	1.26
468.467	1.27
468.814	1.29
469.161	1.3
469.508	1.33
469.856	1.28
470.203	1.31
470.55	1.28
470.897	1.35
471.243	1.29
471.59	1.39
471.937	1.3
472.284	1.27
472.631	1.24
472.977	1.34
473.324	1.28
473.671	1.36
474.017	1.37
474.364	1.28
474.71	1.41
475.057	1.34
475.403	1.3
475.749	1.37
476.096	1.37
476.442	1.28
476.788	1.36
477.134	1.46
477.48	1.43
477.826	1.43
478.172	1.33
478.518	1.39
478.864	1.34
479.21	1.39
479.556	1.28
479.902	1.37
480.248	1.39
480.593	1.35
480.939	1.33
481.285	1.41
481.63	1.38
481.976	1.41
482.321	1.42
482.667	1.46
483.012	1.49
483.357	1.52
483.703	1.61
484.048	1.79
484.393	1.88
484.738	1.99
485.084	2.04
485.429	2.07
485.774	2.1
486.119	2.24
486.464	2.37
486.808	2.52
487.153	2.62
487.498	2.8
487.843	2.83
488.188	3.08
488.532	3.29
488.877	3.5
489.222	3.79
489.566	4.07
489.911	4.4
490.255	4.72
490.6	5.03
490.944	5.31
491.288	5.65
491.633	6.05
491.977	6.39
492.321	6.81
492.665	7.09
493.009	7.42
493.353	7.85
493.697	8.33
494.041	8.72
494.385	9.18
494.729	9.64
495.073	10.1
495.417	10.6
495.76	11.1
496.104	11.65
496.448	12.34
496.791	12.97
497.135	13.51
497.479	14.13
497.822	14.77
498.165	15.44
498.509	16.06
498.852	16.68
499.196	17.37
499.539	18.03
499.882	18.68
500.225	19.4
500.568	20.17
500.911	20.79
501.254	21.56
501.597	22.27
501.94	22.93
502.283	23.53
502.626	24.29
502.969	25.01
503.312	25.64
503.654	26.33
503.997	26.95
504.34	27.61
504.682	28.22
505.025	28.82
505.367	29.38
505.71	29.92
506.052	30.47
506.395	31.08
506.737	31.6
507.079	32.16
507.421	32.74
507.764	33.35
508.106	33.99
508.448	34.56
508.79	35.12
509.132	35.6
509.474	36.08
509.816	36.45
510.158	36.93
510.499	37.39
510.841	38.04
511.183	38.5
511.525	38.95
511.866	39.5
512.208	39.94
512.549	40.42
512.891	40.91
513.232	41.45
513.574	41.9
513.915	42.24
514.256	42.75
514.598	43.29
514.939	43.76
515.28	44.24
515.621	44.74
515.962	45.17
516.303	45.66
516.644	45.92
516.985	46.3
517.326	46.63
517.667	46.96
518.008	47.31
518.349	47.66
518.69	48.17
519.03	48.57
519.371	48.81
519.712	49.09
520.052	49.36
520.393	49.47
520.733	49.75
521.074	50.09
521.414	50.53
521.754	50.78
522.095	50.98
522.435	51.31
522.775	51.65
523.115	51.89
523.455	51.97
523.795	52.12
524.135	52.33
524.475	52.67
524.815	52.69
525.155	53.12
525.495	53.36
525.835	53.53
526.175	53.7
526.514	53.94
526.854	54.24
527.194	54.33
527.533	54.45
527.873	54.55
528.212	54.64
528.552	54.83
528.891	55.11
529.23	55.37
529.57	55.57
529.909	55.74
530.248	55.83
530.587	56.14
530.927	56.35
531.266	56.39
531.605	56.52
531.944	56.62
532.283	56.91
532.621	56.82
532.96	57
533.299	57.15
533.638	57.19
533.977	57.38
534.315	57.47
534.654	57.53
534.992	57.64
535.331	57.56
535.67	57.63
536.008	57.82
536.346	58.08
536.685	58.2
537.023	58.28
537.361	58.45
537.7	58.45
538.038	58.41
538.376	58.37
538.714	58.59
539.052	58.48
539.39	58.45
539.728	58.54
540.066	58.56
540.404	58.8
540.741	58.84
541.079	58.98
541.417	58.89
541.755	58.96
542.092	58.99
542.43	58.97
542.767	59.06
543.105	59.15
543.442	59.2
543.78	59.43
544.117	59.54
544.454	59.65
544.792	59.57
545.129	59.74
545.466	59.7
545.803	59.76
546.14	59.8
546.477	59.92
546.814	60
547.151	59.84
547.488	60.03
547.825	60.13
548.162	60.11
548.499	60.11
548.835	60.21
549.172	60.24
549.509	60.38
549.845	60.42
550.182	60.47
550.518	60.43
550.855	60.48
551.191	60.6
551.528	60.6
551.864	60.73
552.2	60.74
552.537	60.88
552.873	60.88
553.209	61.12
553.545	61.17
553.881	61.34
554.217	61.32
554.553	61.6
554.889	61.67
555.225	61.71
555.561	61.71
555.896	61.66
556.232	61.76
556.568	61.92
556.903	61.97
557.239	61.81
557.575	62.02
557.91	62.1
558.245	62.13
558.581	62.23
558.916	62.37
559.252	62.38
559.587	62.22
559.922	62.38
560.257	62.45
560.592	62.41
560.928	62.38
561.263	62.52
561.598	62.45
561.933	62.5
562.267	62.58
562.602	62.68
562.937	62.69
563.272	62.81
563.607	62.84
563.941	63.18
564.276	63.38
564.611	63.44
564.945	63.55
565.28	63.79
565.614	63.83
565.949	63.66
566.283	63.6
566.617	63.81
566.951	64.01
567.286	63.95
567.62	64.03
567.954	64.24
568.288	64.31
568.622	64.24
568.956	64.22
569.29	64.23
569.624	64.08
569.958	63.97
570.292	63.94
570.626	64.04
570.959	64.19
571.293	64.3
571.627	64.32
571.96	64.28
572.294	64.19
572.627	64.13
572.961	64.18
573.294	64.15
573.627	64.12
573.961	64.22
574.294	64.31
574.627	64.51
574.961	64.52
575.294	64.56
575.627	64.83
575.96	64.76
576.293	64.57
576.626	64.61
576.959	64.66
577.292	64.81
577.624	64.77
577.957	64.88
578.29	65.13
578.623	65.15
578.955	65.18
579.288	65.03
579.62	64.88
579.953	64.74
580.285	64.81
580.618	65
580.95	65.13
581.282	65.2
581.615	65.27
581.947	65.25
582.279	65.25
582.611	65.23
582.943	65.1
583.275	65.16
583.607	65.14
583.939	65.01
584.271	65.03
584.603	65.19
584.935	65.2
585.267	65.22
585.598	65.18
585.93	65.34
586.262	65.41
586.593	65.3
586.925	65.37
587.256	65.28
587.588	65.34
587.919	65.39
588.25	65.53
588.582	65.66
588.913	65.6
589.244	65.51
589.575	65.57
589.907	65.6
590.238	65.53
590.569	65.64
590.9	65.87
591.231	65.99
591.562	65.76
591.892	65.55
592.223	65.55
592.554	65.7
592.885	65.84
593.215	65.79
593.546	65.67
593.877	65.64
594.207	65.58
594.538	65.52
594.868	65.48
595.198	65.49
595.529	65.47
595.859	65.38
596.189	65.63
596.52	65.82
596.85	65.82
597.18	65.74
597.51	65.71
597.84	65.61
598.17	65.69
598.5	65.81
598.83	65.72
599.16	65.58
599.489	65.56
599.819	65.58
600.149	65.72
600.479	65.53
600.808	65.4
601.138	65.24
601.467	65.32
601.797	65.47
602.126	65.46
602.456	65.55
602.785	65.6
603.114	65.59
603.443	65.65
603.773	65.67
604.102	65.81
604.431	65.59
604.76	65.48
605.089	65.21
605.418	65.12
605.747	65.33
606.076	65.27
606.405	65.11
606.733	65.1
607.062	65.09
607.391	65.14
607.72	65.07
608.048	65.09
608.377	64.99
608.705	65.09
609.034	65.1
609.362	65.11
609.69	65.15
610.019	65.01
610.347	65.12
610.675	64.98
611.004	65.06
611.332	65.14
611.66	65.04
611.988	64.98
612.316	65.12
612.644	65.04
612.972	65.08
613.3	65.23
613.627	65.31
613.955	65.07
614.283	64.99
614.611	64.82
614.938	64.87
615.266	64.77
615.593	64.73
615.921	64.65
616.248	64.79
616.576	64.86
616.903	64.94
617.23	65.02
617.558	65.18
617.885	64.93
618.212	64.99
618.539	64.9
618.866	64.63
619.193	64.3
619.52	64.24
619.847	64.29
620.174	64.43
620.501	64.14
620.828	64.18
621.155	64.06
621.481	63.85
621.808	63.8
622.135	63.71
622.461	63.76
622.788	63.87
623.114	63.58
623.441	63.18
623.767	62.94
624.093	62.78
624.42	62.38
624.746	62.27
625.072	62.36
625.398	62.29
625.725	62.14
626.051	62.15
626.377	62.27
626.703	62
627.029	62.3
627.354	62.23
627.68	61.82
628.006	61.74
628.332	61.38
628.658	61.39
628.983	61.1
629.309	61.28
629.634	61.41
629.96	61.18
630.285	61.49
630.611	61.14
630.936	61.48
631.262	62.12
631.587	62.58
631.912	63.09
632.237	63.61
632.562	64.5
632.887	64.79
633.213	64.88
633.538	65.45
633.863	65.27
634.187	65.01
634.512	64.8
634.837	65.11
635.162	64.96
635.487	64.52
635.811	65.19
636.136	65.37
636.461	65.2
636.785	65.15
637.11	65.41
637.434	65.22
637.758	65.64
638.083	65.85
638.407	65.42
638.731	65.43
639.056	64.77
639.38	64.33
639.704	64.65
640.028	64.25
640.352	64.21
640.676	63.79
641	63.46
641.324	63.34
641.648	62.84
641.972	63.08
642.295	63.69
642.619	64.02
642.943	63.45
643.266	63.56
643.59	64.06
643.913	63.76
644.237	63.41
644.56	63.58
644.884	63.86
645.207	63.85
645.53	63.49
645.854	63.26
646.177	63.06
646.5	63.37
646.823	63.61
647.146	63.93
647.469	64.1
647.792	63.79
648.115	63.99
648.438	64.02
648.761	66
649.084	66.6
649.406	66.2
649.729	65.51
650.052	64.94
650.374	64.5
650.697	64.28
651.019	64.34
651.342	64.33
651.664	64.46
651.987	64.5
