Data from T2_Reflection__27__19-06-26-251.txt Node

Date: Fri Jun 04 19:06:26 CEST 2021
User: mabdelazizm
Spectrometer: FLMS18565
Trigger mode: 0
Integration Time (sec): 2.000000E0
Scans to average: 1
Electric dark correction enabled: true
Nonlinearity correction enabled: false
Boxcar width: 12
XAxis mode: Wavelengths
Number of Pixels in Spectrum: 2048
>>>>>Begin Spectral Data<<<<<
179.071	-99.57
179.452	-42.91
179.833	-149.1
180.214	-138.46
180.595	-145.91
180.977	-209.13
181.358	-193.02
181.739	-204.47
182.12	-133.26
182.501	-144.06
182.882	-172.93
183.262	-771.43
183.643	-160.58
184.024	-130.88
184.405	-56.68
184.786	-32.91
185.166	-48.75
185.547	-24.91
185.927	1.26
186.308	-3.62
186.689	-4.3
187.069	1.89
187.449	-3.44
187.83	0.99
188.21	-0.89
188.59	3.85
188.971	2.47
189.351	4.58
189.731	2.56
190.111	6.45
190.491	5.98
190.871	6.69
191.251	7.82
191.631	8.04
192.011	7.8
192.391	8.46
192.771	12.96
193.151	11.56
193.531	12.01
193.91	12.24
194.29	14.45
194.67	14.54
195.049	10.21
195.429	7.36
195.808	5.54
196.188	6.75
196.567	4.12
196.946	6.46
197.326	5.46
197.705	7.4
198.084	4.49
198.464	2.96
198.843	4.66
199.222	5.82
199.601	4.59
199.98	1.69
200.359	0.15
200.738	2.8
201.117	1.69
201.496	-1.21
201.875	0.27
202.254	-1.48
202.632	-1.01
203.011	1.16
203.39	0.25
203.768	-1.08
204.147	-0.49
204.525	0.46
204.904	0.2
205.282	3
205.661	-1.2
206.039	-0.68
206.418	-0.3
206.796	2.02
207.174	1.22
207.552	3
207.931	1.72
208.309	-0.24
208.687	-1.82
209.065	0.36
209.443	2.7
209.821	2.15
210.199	-1.31
210.577	-0.97
210.954	0.46
211.332	-1.84
211.71	-3.4
212.088	-2.04
212.465	-2.2
212.843	-0.63
213.221	1.47
213.598	2.95
213.976	3.76
214.353	4
214.731	3.22
215.108	6.61
215.485	5.53
215.863	3.88
216.24	1.69
216.617	1.44
216.994	-0.01
217.371	2.09
217.749	2.93
218.126	4.02
218.503	3.27
218.88	2.84
219.256	3.52
219.633	5.12
220.01	5.35
220.387	5.97
220.764	6.07
221.14	7.09
221.517	6.8
221.894	6.26
222.27	5.35
222.647	4.37
223.023	3.45
223.4	2.88
223.776	3.41
224.153	2.37
224.529	2.26
224.905	2.93
225.282	3.15
225.658	3.15
226.034	2.7
226.41	2.77
226.786	2.32
227.162	2.62
227.538	2.39
227.914	2.2
228.29	2.06
228.666	2.26
229.042	2.04
229.418	2.21
229.793	2.23
230.169	2.2
230.545	1.94
230.92	1.81
231.296	1.88
231.672	1.98
232.047	2.05
232.422	2.35
232.798	2.51
233.173	2.41
233.549	2.79
233.924	2.97
234.299	3.03
234.674	3
235.05	3.04
235.425	3.17
235.8	3.3
236.175	3.37
236.55	3.26
236.925	3.29
237.3	3.37
237.675	3.48
238.049	3.42
238.424	3.32
238.799	3.35
239.174	3.34
239.548	3.38
239.923	3.48
240.297	3.47
240.672	3.51
241.046	3.54
241.421	3.61
241.795	3.51
242.17	3.45
242.544	3.47
242.918	3.37
243.293	3.28
243.667	3.2
244.041	3.24
244.415	3.28
244.789	3.36
245.163	3.33
245.537	3.3
245.911	3.33
246.285	3.35
246.659	3.35
247.033	3.35
247.406	3.36
247.78	3.48
248.154	3.37
248.528	3.39
248.901	3.4
249.275	3.37
249.648	3.45
250.022	3.42
250.395	3.36
250.769	3.34
251.142	3.36
251.515	3.38
251.888	3.36
252.262	3.37
252.635	3.37
253.008	3.36
253.381	3.32
253.754	3.28
254.127	3.16
254.5	3.11
254.873	3.13
255.246	3.08
255.619	3.08
255.992	3.11
256.364	3.09
256.737	3.1
257.11	3
257.483	3.04
257.855	3.05
258.228	3.06
258.6	3.09
258.973	3.08
259.345	3.14
259.718	3.12
260.09	3.07
260.462	2.99
260.834	2.99
261.207	2.99
261.579	2.96
261.951	2.96
262.323	2.96
262.695	3
263.067	3.01
263.439	3.11
263.811	3.17
264.183	3.14
264.555	3.2
264.927	3.19
265.298	3.12
265.67	3.07
266.042	3.02
266.413	3.04
266.785	3.03
267.156	3
267.528	2.98
267.899	2.96
268.271	2.93
268.642	2.79
269.013	2.82
269.385	2.83
269.756	2.84
270.127	2.78
270.498	2.76
270.87	2.77
271.241	2.75
271.612	2.74
271.983	2.75
272.354	2.67
272.724	2.61
273.095	2.56
273.466	2.54
273.837	2.49
274.208	2.45
274.578	2.42
274.949	2.47
275.32	2.49
275.69	2.46
276.061	2.4
276.431	2.37
276.802	2.33
277.172	2.33
277.542	2.27
277.913	2.33
278.283	2.33
278.653	2.36
279.023	2.37
279.394	2.42
279.764	2.42
280.134	2.45
280.504	2.47
280.874	2.44
281.244	2.39
281.614	2.46
281.983	2.44
282.353	2.49
282.723	2.53
283.093	2.52
283.462	2.56
283.832	2.58
284.202	2.53
284.571	2.5
284.941	2.48
285.31	2.58
285.68	2.57
286.049	2.53
286.418	2.5
286.788	2.54
287.157	2.54
287.526	2.55
287.895	2.52
288.264	2.58
288.633	2.51
289.002	2.49
289.371	2.53
289.74	2.46
290.109	2.49
290.478	2.47
290.847	2.43
291.216	2.43
291.585	2.34
291.953	2.27
292.322	2.25
292.691	2.23
293.059	2.18
293.428	2.16
293.796	2.23
294.165	2.26
294.533	2.23
294.901	2.24
295.27	2.25
295.638	2.24
296.006	2.17
296.374	2.13
296.743	2.11
297.111	2.07
297.479	2
297.847	2.06
298.215	2.04
298.583	1.97
298.95	1.99
299.318	2.01
299.686	1.98
300.054	1.97
300.422	2
300.789	1.98
301.157	2
301.525	2.03
301.892	2.01
302.26	2.01
302.627	2.09
302.994	2.04
303.362	2.05
303.729	2.02
304.097	1.97
304.464	1.99
304.831	2.02
305.198	2.01
305.565	2.09
305.932	2.07
306.299	2.05
306.666	2.05
307.033	2.04
307.4	2.06
307.767	2.01
308.134	1.96
308.501	1.93
308.867	1.95
309.234	1.96
309.601	1.95
309.967	1.93
310.334	1.96
310.701	1.93
311.067	1.9
311.433	1.94
311.8	1.85
312.166	1.84
312.533	1.75
312.899	1.77
313.265	1.82
313.631	1.81
313.997	1.77
314.363	1.76
314.729	1.72
315.096	1.74
315.461	1.73
315.827	1.75
316.193	1.75
316.559	1.74
316.925	1.76
317.291	1.82
317.656	1.83
318.022	1.82
318.388	1.84
318.753	1.77
319.119	1.77
319.484	1.78
319.85	1.76
320.215	1.74
320.581	1.71
320.946	1.75
321.311	1.74
321.676	1.81
322.042	1.79
322.407	1.74
322.772	1.73
323.137	1.8
323.502	1.86
323.867	1.88
324.232	1.85
324.597	1.85
324.962	1.84
325.327	1.81
325.691	1.86
326.056	1.83
326.421	1.81
326.785	1.79
327.15	1.78
327.514	1.72
327.879	1.74
328.243	1.75
328.608	1.68
328.972	1.67
329.337	1.7
329.701	1.68
330.065	1.64
330.429	1.65
330.794	1.65
331.158	1.65
331.522	1.64
331.886	1.61
332.25	1.53
332.614	1.48
332.978	1.43
333.342	1.46
333.705	1.48
334.069	1.42
334.433	1.4
334.797	1.34
335.16	1.37
335.524	1.39
335.887	1.4
336.251	1.38
336.614	1.39
336.978	1.39
337.341	1.4
337.705	1.4
338.068	1.47
338.431	1.46
338.794	1.45
339.158	1.42
339.521	1.37
339.884	1.27
340.247	1.26
340.61	1.29
340.973	1.32
341.336	1.31
341.699	1.28
342.062	1.26
342.424	1.22
342.787	1.2
343.15	1.23
343.512	1.25
343.875	1.23
344.238	1.27
344.6	1.19
344.963	1.18
345.325	1.18
345.688	1.19
346.05	1.19
346.412	1.17
346.775	1.18
347.137	1.1
347.499	1.12
347.861	1.15
348.223	1.16
348.585	1.16
348.947	1.19
349.309	1.16
349.671	1.19
350.033	1.15
350.395	1.19
350.757	1.19
351.118	1.15
351.48	1.16
351.842	1.17
352.203	1.19
352.565	1.11
352.927	1.14
353.288	1.08
353.65	1.12
354.011	1.12
354.372	1.21
354.734	1.2
355.095	1.2
355.456	1.24
355.817	1.26
356.179	1.26
356.54	1.27
356.901	1.23
357.262	1.24
357.623	1.25
357.984	1.33
358.345	1.4
358.705	1.37
359.066	1.4
359.427	1.35
359.788	1.35
360.148	1.39
360.509	1.42
360.87	1.44
361.23	1.43
361.591	1.52
361.951	1.49
362.312	1.5
362.672	1.53
363.032	1.54
363.393	1.45
363.753	1.38
364.113	1.34
364.473	1.31
364.833	1.3
365.193	1.33
365.553	1.28
365.913	1.27
366.273	1.27
366.633	1.3
366.993	1.15
367.353	1.06
367.713	1.05
368.072	0.96
368.432	0.97
368.792	0.97
369.151	0.99
369.511	0.99
369.87	0.94
370.23	0.97
370.589	0.95
370.949	0.94
371.308	0.91
371.667	0.89
372.027	0.84
372.386	0.84
372.745	0.88
373.104	0.9
373.463	0.89
373.822	0.9
374.181	0.9
374.54	0.96
374.899	1.01
375.258	1
375.617	0.98
375.975	1.05
376.334	1.06
376.693	1.11
377.052	1.23
377.41	1.27
377.769	1.27
378.127	1.31
378.486	1.26
378.844	1.26
379.202	1.17
379.561	1.12
379.919	1.11
380.277	1.14
380.636	1.09
380.994	1.05
381.352	1.05
381.71	1.03
382.068	1.08
382.426	1.05
382.784	1.05
383.142	1.03
383.5	0.99
383.857	1.02
384.215	1.02
384.573	0.99
384.931	0.99
385.288	0.95
385.646	0.85
386.003	0.8
386.361	0.78
386.718	0.82
387.076	0.76
387.433	0.8
387.791	0.85
388.148	0.9
388.505	0.93
388.862	0.93
389.22	0.97
389.577	1.05
389.934	1.12
390.291	1.12
390.648	1.17
391.005	1.13
391.362	1.12
391.718	1.05
392.075	1.04
392.432	1.04
392.789	0.99
393.145	0.97
393.502	1
393.859	1.05
394.215	1.06
394.572	1.03
394.928	1.02
395.285	0.96
395.641	0.92
395.997	0.96
396.354	0.92
396.71	0.92
397.066	0.89
397.422	1
397.778	1.02
398.134	1
398.491	0.99
398.846	0.96
399.202	1.02
399.558	0.92
399.914	0.99
400.27	1.03
400.626	1.11
400.981	1.16
401.337	1.19
401.693	1.22
402.048	1.2
402.404	1.24
402.759	1.17
403.115	1.18
403.47	1.23
403.826	1.27
404.181	1.28
404.536	1.25
404.892	1.17
405.247	1.15
405.602	1.13
405.957	1.17
406.312	1.09
406.667	1.11
407.022	1.09
407.377	1.12
407.732	1.12
408.087	0.99
408.442	1
408.796	0.9
409.151	0.89
409.506	0.9
409.86	0.86
410.215	0.82
410.57	0.76
410.924	0.89
411.279	0.89
411.633	0.88
411.987	0.92
412.342	0.97
412.696	1.01
413.05	1.02
413.404	1.08
413.758	1.15
414.113	1.21
414.467	1.24
414.821	1.21
415.175	1.21
415.529	1.14
415.882	1.14
416.236	1.08
416.59	1.17
416.944	1.24
417.298	1.35
417.651	1.44
418.005	1.5
418.358	1.45
418.712	1.46
419.065	1.45
419.419	1.49
419.772	1.39
420.126	1.44
420.479	1.54
420.832	1.5
421.185	1.56
421.539	1.52
421.892	1.6
422.245	1.66
422.598	1.65
422.951	1.68
423.304	1.72
423.657	1.7
424.01	1.72
424.363	1.75
424.715	1.76
425.068	1.74
425.421	1.64
425.773	1.64
426.126	1.78
426.479	1.72
426.831	1.68
427.184	1.65
427.536	1.69
427.889	1.71
428.241	1.74
428.593	1.75
428.945	1.73
429.298	1.73
429.65	1.75
430.002	1.72
430.354	1.77
430.706	1.74
431.058	1.71
431.41	1.72
431.762	1.67
432.114	1.57
432.466	1.64
432.817	1.66
433.169	1.69
433.521	1.73
433.872	1.74
434.224	1.78
434.576	1.79
434.927	1.66
435.279	1.66
435.63	1.76
435.981	1.81
436.333	1.85
436.684	1.93
437.035	1.91
437.387	1.93
437.738	1.89
438.089	1.94
438.44	1.91
438.791	1.93
439.142	1.85
439.493	1.86
439.844	1.87
440.195	1.92
440.545	1.94
440.896	2.04
441.247	2.05
441.598	2.07
441.948	2.1
442.299	2.05
442.649	2.16
443	2.14
443.35	2.11
443.701	2.08
444.051	2.07
444.401	2.01
444.752	1.94
445.102	1.83
445.452	1.76
445.802	1.77
446.152	1.79
446.502	1.77
446.852	1.62
447.202	1.67
447.552	1.63
447.902	1.68
448.252	1.61
448.602	1.06
448.952	0.99
449.301	1
449.651	0.93
450.001	0.86
450.35	0.76
450.7	0.77
451.049	0.77
451.399	0.8
451.748	0.79
452.097	0.92
452.447	0.9
452.796	1.01
453.145	1.06
453.494	1.08
453.843	1.16
454.193	1.18
454.542	1.12
454.891	1.11
455.239	1.06
455.588	1.15
455.937	1.17
456.286	1.15
456.635	1.11
456.984	1.14
457.332	1.73
457.681	1.72
458.03	1.76
458.378	1.82
458.727	1.83
459.075	1.89
459.423	1.95
459.772	2
460.12	1.93
460.468	2.03
460.817	1.92
461.165	1.99
461.513	1.93
461.861	1.92
462.209	2.04
462.557	2.16
462.905	2.09
463.253	2.17
463.601	2.24
463.949	2.34
464.297	2.3
464.644	2.39
464.992	2.43
465.34	2.41
465.687	2.5
466.035	2.43
466.383	2.53
466.73	2.52
467.078	2.48
467.425	2.54
467.772	2.65
468.12	2.57
468.467	2.46
468.814	2.47
469.161	2.45
469.508	2.55
469.856	2.57
470.203	2.56
470.55	2.49
470.897	2.49
471.243	2.37
471.59	2.46
471.937	2.45
472.284	2.36
472.631	2.25
472.977	2.33
473.324	2.25
473.671	2.16
474.017	2.24
474.364	2.18
474.71	2.26
475.057	2.19
475.403	2.18
475.749	2.18
476.096	2.09
476.442	2.06
476.788	2.09
477.134	2.18
477.48	2.18
477.826	2.13
478.172	2.01
478.518	1.96
478.864	2.02
479.21	2.13
479.556	2.07
479.902	2.14
480.248	2.18
480.593	2.15
480.939	2.13
481.285	2.21
481.63	2.18
481.976	2.22
482.321	2.28
482.667	2.3
483.012	2.26
483.357	2.3
483.703	2.34
484.048	2.42
484.393	2.51
484.738	2.57
485.084	2.56
485.429	2.55
485.774	2.52
486.119	2.58
486.464	2.7
486.808	2.8
487.153	2.84
487.498	2.9
487.843	2.88
488.188	3.01
488.532	3.14
488.877	3.18
489.222	3.37
489.566	3.54
489.911	3.78
490.255	3.96
490.6	4.08
490.944	4.22
491.288	4.41
491.633	4.64
491.977	4.79
492.321	5.05
492.665	5.23
493.009	5.48
493.353	5.85
493.697	6.15
494.041	6.43
494.385	6.76
494.729	7.01
495.073	7.37
495.417	7.68
495.76	8.07
496.104	8.44
496.448	8.87
496.791	9.31
497.135	9.72
497.479	10.11
497.822	10.55
498.165	11.08
498.509	11.55
498.852	12.03
499.196	12.66
499.539	13.22
499.882	13.73
500.225	14.35
500.568	14.95
500.911	15.49
501.254	16.04
501.597	16.54
501.94	17.05
502.283	17.57
502.626	18.14
502.969	18.68
503.312	19.28
503.654	19.85
503.997	20.4
504.34	20.93
504.682	21.43
505.025	21.94
505.367	22.49
505.71	22.91
506.052	23.48
506.395	23.98
506.737	24.48
507.079	24.96
507.421	25.56
507.764	26.05
508.106	26.48
508.448	26.95
508.79	27.36
509.132	27.79
509.474	28.26
509.816	28.65
510.158	29.17
510.499	29.6
510.841	30.12
511.183	30.58
511.525	31.06
511.866	31.48
512.208	31.78
512.549	32.29
512.891	32.74
513.232	33.22
513.574	33.67
513.915	33.98
514.256	34.33
514.598	34.73
514.939	35.14
515.28	35.42
515.621	35.76
515.962	36.05
516.303	36.48
516.644	36.83
516.985	37.22
517.326	37.61
517.667	37.92
518.008	38.18
518.349	38.59
518.69	38.79
519.03	39.12
519.371	39.4
519.712	39.64
520.052	39.96
520.393	40.19
520.733	40.48
521.074	40.74
521.414	41.09
521.754	41.4
522.095	41.66
522.435	41.98
522.775	42.33
523.115	42.76
523.455	42.94
523.795	43.21
524.135	43.4
524.475	43.52
524.815	43.6
525.155	43.89
525.495	44.02
525.835	44.17
526.175	44.37
526.514	44.7
526.854	44.74
527.194	44.96
527.533	45.18
527.873	45.2
528.212	45.44
528.552	45.58
528.891	45.74
529.23	45.94
529.57	46.1
529.909	46.21
530.248	46.13
530.587	46.32
530.927	46.41
531.266	46.51
531.605	46.52
531.944	46.61
532.283	46.78
532.621	46.77
532.96	47.07
533.299	47.23
533.638	47.37
533.977	47.51
534.315	47.64
534.654	47.75
534.992	47.77
535.331	47.98
535.67	48.01
536.008	48.04
536.346	48.29
536.685	48.27
537.023	48.19
537.361	48.39
537.7	48.5
538.038	48.5
538.376	48.39
538.714	48.74
539.052	48.76
539.39	48.79
539.728	48.89
540.066	48.79
540.404	48.86
540.741	48.87
541.079	48.99
541.417	48.79
541.755	48.86
542.092	48.81
542.43	48.82
542.767	48.81
543.105	48.77
543.442	48.85
543.78	48.85
544.117	48.92
544.454	49.09
544.792	49.05
545.129	49.04
545.466	49.16
545.803	49.14
546.14	49.06
546.477	49.11
546.814	49.28
547.151	49.08
547.488	49.08
547.825	49.08
548.162	49.12
548.499	49.26
548.835	49.4
549.172	49.52
549.509	49.72
549.845	50.05
550.182	49.88
550.518	50.02
550.855	50.06
551.191	50.2
551.528	50.34
551.864	50.3
552.2	50.35
552.537	50.46
552.873	50.49
553.209	50.58
553.545	50.58
553.881	50.61
554.217	50.65
554.553	50.86
554.889	51.02
555.225	51.05
555.561	51.22
555.896	51.36
556.232	51.46
556.568	51.63
556.903	51.67
557.239	51.67
557.575	51.74
557.91	51.72
558.245	51.52
558.581	51.61
558.916	51.55
559.252	51.73
559.587	51.62
559.922	51.55
560.257	51.6
560.592	51.66
560.928	51.65
561.263	51.5
561.598	51.49
561.933	51.73
562.267	51.84
562.602	51.96
562.937	52.1
563.272	52.11
563.607	52.03
563.941	52.23
564.276	52.27
564.611	52.21
564.945	52.13
565.28	52.3
565.614	52.17
565.949	52.14
566.283	52.21
566.617	52.25
566.951	52.58
567.286	52.8
567.62	52.7
567.954	52.77
568.288	52.87
568.622	52.79
568.956	52.73
569.29	52.82
569.624	52.83
569.958	52.86
570.292	52.78
570.626	52.81
570.959	52.81
571.293	52.68
571.627	52.74
571.96	52.84
572.294	52.75
572.627	52.7
572.961	52.78
573.294	52.81
573.627	52.76
573.961	52.84
574.294	52.88
574.627	52.88
574.961	52.98
575.294	52.76
575.627	52.77
575.96	52.82
576.293	52.83
576.626	52.77
576.959	52.83
577.292	52.87
577.624	52.86
577.957	52.86
578.29	52.92
578.623	52.99
578.955	53.09
579.288	53.11
579.62	53.08
579.953	52.86
580.285	52.87
580.618	52.92
580.95	52.96
581.282	52.94
581.615	52.91
581.947	52.87
582.279	52.9
582.611	52.86
582.943	52.9
583.275	52.9
583.607	53.08
583.939	52.99
584.271	52.94
584.603	52.97
584.935	53.06
585.267	53.11
585.598	53.23
585.93	53.26
586.262	53.33
586.593	53.17
586.925	53.21
587.256	52.98
587.588	52.94
587.919	53.05
588.25	53.34
588.582	53.41
588.913	53.49
589.244	53.6
589.575	53.66
589.907	53.72
590.238	53.69
590.569	53.79
590.9	53.91
591.231	53.96
591.562	53.87
591.892	53.72
592.223	53.67
592.554	53.71
592.885	53.67
593.215	53.71
593.546	53.57
593.877	53.35
594.207	53.35
594.538	53.49
594.868	53.54
595.198	53.39
595.529	53.55
595.859	53.5
596.189	53.59
596.52	53.65
596.85	53.54
597.18	53.41
597.51	53.37
597.84	53.37
598.17	53.3
598.5	53.28
598.83	53.14
599.16	53.18
599.489	53.15
599.819	53.33
600.149	53.31
600.479	53.37
600.808	53.27
601.138	53.34
601.467	53.25
601.797	53.45
602.126	53.57
602.456	53.53
602.785	53.35
603.114	53.36
603.443	53.56
603.773	53.55
604.102	53.62
604.431	53.45
604.76	53.17
605.089	53.17
605.418	53.07
605.747	53
606.076	53
606.405	53
606.733	53.16
607.062	53.29
607.391	53.03
607.72	52.89
608.048	52.58
608.377	52.63
608.705	52.52
609.034	52.63
609.362	52.7
609.69	52.76
610.019	52.68
610.347	52.69
610.675	52.72
611.004	52.8
611.332	52.99
611.66	53.02
611.988	52.98
612.316	52.96
612.644	52.96
612.972	53.09
613.3	53.15
613.627	53.3
613.955	53.14
614.283	53.02
614.611	53.07
614.938	53.06
615.266	53.01
615.593	53.31
615.921	53.33
616.248	53.48
616.576	53.43
616.903	53.59
617.23	53.5
617.558	53.27
617.885	53.18
618.212	53.09
618.539	53.16
618.866	52.95
619.193	52.93
619.52	52.81
619.847	52.7
620.174	52.52
620.501	52.32
620.828	52.47
621.155	52.63
621.481	52.37
621.808	52.25
622.135	52.68
622.461	52.57
622.788	52.69
623.114	52.67
623.441	52.38
623.767	52.22
624.093	52.22
624.42	52.18
624.746	52.25
625.072	52.27
625.398	52.51
625.725	52.86
626.051	52.77
626.377	52.82
626.703	52.83
627.029	52.94
627.354	52.61
627.68	52.2
628.006	52.44
628.332	52.42
628.658	53.01
628.983	52.73
629.309	52.55
629.634	52.67
629.96	52.66
630.285	52.18
630.611	52.65
630.936	52.56
631.262	53.02
631.587	53.28
631.912	53.57
632.237	53.8
632.562	54.35
632.887	54.71
633.213	54.49
633.538	54.46
633.863	53.92
634.187	54.14
634.512	54.49
634.837	54.55
635.162	54.25
635.487	54.24
635.811	54.64
636.136	54.56
636.461	54.83
636.785	54.5
637.11	54.48
637.434	54.23
637.758	54.42
638.083	54.2
638.407	54.18
638.731	54.4
639.056	54.31
639.38	54.02
639.704	54.36
640.028	54.09
640.352	53.98
640.676	53.49
641	53.25
641.324	53.57
641.648	53.23
641.972	53.28
642.295	53.26
642.619	53.25
642.943	52.72
643.266	53.26
643.59	53.48
643.913	53.39
644.237	53.22
644.56	53.25
644.884	53.24
645.207	53.97
645.53	54.61
645.854	54.34
646.177	54.7
646.5	55.12
646.823	54.94
647.146	55.05
647.469	55.17
647.792	54.95
648.115	55.16
648.438	55.12
648.761	55.15
649.084	54.43
649.406	54.26
649.729	53.76
650.052	53.45
650.374	53.1
650.697	52.89
651.019	53.06
651.342	53
651.664	53.07
651.987	53.3
652.309	53.2
652.631	53.16
652.953	53.16
653.276	52.82
653.598	52.67
653.92	52.77
654.242	52.73
654.564	52.57
654.886	52.4
655.208	52.4
655.53	52.29
655.851	52.18
656.173	52.08
656.495	52.2
656.816	52.08
657.138	52.08
657.46	51.47
657.781	51.6
658.103	51.81
658.424	52.27
658.746	52.01
659.067	52.1
659.388	52.15
659.709	51.89
660.031	51.02
660.352	51.02
660.673	50.3
660.994	50.14
661.315	51.04
661.636	51.35
661.957	51.34
662.278	51.76
662.599	52.22
662.919	52.31
663.24	52.66
663.561	51.65
663.881	51.32
664.202	51.32
664.523	50.38
664.843	49.99
