Data from T2_Reflection__44__19-20-08-224.txt Node

Date: Fri Jun 04 19:20:08 CEST 2021
User: mabdelazizm
Spectrometer: FLMS18565
Trigger mode: 0
Integration Time (sec): 2.000000E0
Scans to average: 1
Electric dark correction enabled: true
Nonlinearity correction enabled: false
Boxcar width: 12
XAxis mode: Wavelengths
Number of Pixels in Spectrum: 2048
>>>>>Begin Spectral Data<<<<<
179.071	130.91
179.452	123.8
179.833	125.81
180.214	53.85
180.595	-28.25
180.977	-39.54
181.358	12.57
181.739	15.64
182.12	-11.27
182.501	-31.7
182.882	-36.41
183.262	-108.57
183.643	23.65
184.024	16.92
184.405	25.4
184.786	14.99
185.166	-3.47
185.547	7.27
185.927	16.24
186.308	8.18
186.689	20.31
187.069	15.02
187.449	3.84
187.83	-0.09
188.21	-5.23
188.59	-2.18
188.971	-2.3
189.351	5.6
189.731	9.39
190.111	13.29
190.491	13.49
190.871	11.95
191.251	15.25
191.631	19.78
192.011	20.14
192.391	19.57
192.771	20.22
193.151	17.65
193.531	20.53
193.91	21.5
194.29	24.17
194.67	27.07
195.049	21.54
195.429	19
195.808	18.92
196.188	14.39
196.567	13.78
196.946	18.79
197.326	18.72
197.705	19.74
198.084	15.38
198.464	14.31
198.843	14.56
199.222	15.97
199.601	16.64
199.98	16.51
200.359	15.01
200.738	13.49
201.117	10.14
201.496	7.72
201.875	7.95
202.254	5.82
202.632	4.62
203.011	4.76
203.39	3.93
203.768	3.11
204.147	3.08
204.525	2.79
204.904	3.04
205.282	5.02
205.661	3.35
206.039	3.52
206.418	0.47
206.796	2.5
207.174	1.97
207.552	4
207.931	1.55
208.309	-0.63
208.687	-0.79
209.065	-0.08
209.443	-1.93
209.821	-3.37
210.199	-6.63
210.577	-6.5
210.954	-4.92
211.332	-7.81
211.71	-9.43
212.088	-6.09
212.465	-5.32
212.843	-4.36
213.221	-2.41
213.598	-1.77
213.976	-1.84
214.353	-2.08
214.731	-2.65
215.108	0.51
215.485	2.52
215.863	0.77
216.24	-1
216.617	-0.26
216.994	-2.26
217.371	-1.05
217.749	0.05
218.126	-0.57
218.503	-1.46
218.88	-0.5
219.256	-0.08
219.633	1.38
220.01	2.43
220.387	2.92
220.764	3.39
221.14	4.8
221.517	3.93
221.894	3.35
222.27	3.6
222.647	2.98
223.023	3.29
223.4	3.56
223.776	3.42
224.153	2.43
224.529	2.16
224.905	2.43
225.282	2.86
225.658	2.92
226.034	2.12
226.41	2.84
226.786	2.52
227.162	2.51
227.538	2.35
227.914	2.38
228.29	2.07
228.666	2.11
229.042	2.09
229.418	2.19
229.793	1.87
230.169	1.91
230.545	1.74
230.92	1.49
231.296	1.45
231.672	1.27
232.047	1.21
232.422	1
232.798	1.14
233.173	1.22
233.549	1.23
233.924	1.26
234.299	1.09
234.674	1.08
235.05	1.12
235.425	1.22
235.8	1.24
236.175	1.37
236.55	1.49
236.925	1.56
237.3	1.69
237.675	1.82
238.049	1.8
238.424	1.78
238.799	1.84
239.174	1.96
239.548	2.05
239.923	2.16
240.297	2.24
240.672	2.18
241.046	2.19
241.421	2.22
241.795	2.2
242.17	2.17
242.544	2.2
242.918	2.26
243.293	2.27
243.667	2.28
244.041	2.35
244.415	2.34
244.789	2.32
245.163	2.25
245.537	2.27
245.911	2.25
246.285	2.24
246.659	2.23
247.033	2.25
247.406	2.3
247.78	2.29
248.154	2.17
248.528	2.16
248.901	2.12
249.275	2.04
249.648	2.04
250.022	2.04
250.395	2.03
250.769	2.05
251.142	2.07
251.515	2.07
251.888	2.03
252.262	2.01
252.635	2
253.008	1.97
253.381	1.95
253.754	1.95
254.127	2
254.5	2.05
254.873	2.02
255.246	1.99
255.619	1.98
255.992	1.99
256.364	1.94
256.737	1.9
257.11	1.91
257.483	1.94
257.855	1.93
258.228	1.92
258.6	1.92
258.973	1.96
259.345	2.02
259.718	1.99
260.09	1.94
260.462	1.93
260.834	1.95
261.207	1.98
261.579	1.98
261.951	1.95
262.323	1.92
262.695	1.92
263.067	1.98
263.439	2.01
263.811	1.98
264.183	1.93
264.555	1.97
264.927	1.97
265.298	1.94
265.67	1.92
266.042	1.92
266.413	1.93
266.785	1.88
267.156	1.87
267.528	1.85
267.899	1.86
268.271	1.83
268.642	1.7
269.013	1.69
269.385	1.71
269.756	1.72
270.127	1.66
270.498	1.67
270.87	1.7
271.241	1.7
271.612	1.72
271.983	1.69
272.354	1.55
272.724	1.5
273.095	1.51
273.466	1.51
273.837	1.46
274.208	1.44
274.578	1.36
274.949	1.39
275.32	1.39
275.69	1.35
276.061	1.39
276.431	1.4
276.802	1.38
277.172	1.37
277.542	1.3
277.913	1.36
278.283	1.34
278.653	1.32
279.023	1.28
279.394	1.35
279.764	1.28
280.134	1.27
280.504	1.27
280.874	1.25
281.244	1.25
281.614	1.32
281.983	1.29
282.353	1.31
282.723	1.37
283.093	1.38
283.462	1.37
283.832	1.43
284.202	1.43
284.571	1.38
284.941	1.38
285.31	1.44
285.68	1.41
286.049	1.4
286.418	1.36
286.788	1.44
287.157	1.41
287.526	1.43
287.895	1.46
288.264	1.44
288.633	1.4
289.002	1.33
289.371	1.34
289.74	1.31
290.109	1.32
290.478	1.3
290.847	1.27
291.216	1.29
291.585	1.23
291.953	1.14
292.322	1.14
292.691	1.08
293.059	1.03
293.428	0.98
293.796	1.02
294.165	1.03
294.533	0.96
294.901	0.97
295.27	1.02
295.638	1.01
296.006	0.95
296.374	0.97
296.743	0.94
297.111	0.93
297.479	0.96
297.847	0.96
298.215	1.03
298.583	0.97
298.95	0.99
299.318	1
299.686	0.99
300.054	0.98
300.422	0.99
300.789	1
301.157	1.02
301.525	1
301.892	1.09
302.26	1.1
302.627	1.15
302.994	1.14
303.362	1.14
303.729	1.14
304.097	1.12
304.464	1.06
304.831	1.07
305.198	1.06
305.565	1.07
305.932	1.09
306.299	1.05
306.666	1.03
307.033	1
307.4	1.01
307.767	1
308.134	0.95
308.501	0.97
308.867	0.98
309.234	0.99
309.601	0.99
309.967	0.94
310.334	0.98
310.701	0.98
311.067	0.93
311.433	0.96
311.8	0.87
312.166	0.89
312.533	0.86
312.899	0.87
313.265	0.92
313.631	0.96
313.997	0.97
314.363	0.95
314.729	0.93
315.096	0.93
315.461	0.97
315.827	1.01
316.193	1.04
316.559	1.07
316.925	1.07
317.291	1.09
317.656	1.08
318.022	1.04
318.388	1.08
318.753	1.05
319.119	1.1
319.484	1.11
319.85	1.11
320.215	1.11
320.581	1.1
320.946	1.16
321.311	1.12
321.676	1.11
322.042	1.1
322.407	1.02
322.772	1.03
323.137	1.03
323.502	1.11
323.867	1.14
324.232	1.12
324.597	1.1
324.962	1.08
325.327	1.1
325.691	1.06
326.056	1.08
326.421	1.12
326.785	1.1
327.15	1.13
327.514	1.05
327.879	1.09
328.243	1.05
328.608	1
328.972	1.02
329.337	0.99
329.701	0.98
330.065	0.96
330.429	0.99
330.794	0.98
331.158	1.03
331.522	1.08
331.886	1.03
332.25	1.02
332.614	1
332.978	0.94
333.342	0.99
333.705	0.95
334.069	0.9
334.433	0.83
334.797	0.86
335.16	0.85
335.524	0.81
335.887	0.8
336.251	0.8
336.614	0.8
336.978	0.79
337.341	0.77
337.705	0.79
338.068	0.79
338.431	0.81
338.794	0.77
339.158	0.78
339.521	0.73
339.884	0.71
340.247	0.64
340.61	0.64
340.973	0.69
341.336	0.7
341.699	0.67
342.062	0.68
342.424	0.63
342.787	0.67
343.15	0.63
343.512	0.7
343.875	0.66
344.238	0.66
344.6	0.6
344.963	0.59
345.325	0.58
345.688	0.57
346.05	0.58
346.412	0.65
346.775	0.55
347.137	0.53
347.499	0.49
347.861	0.59
348.223	0.57
348.585	0.58
348.947	0.59
349.309	0.59
349.671	0.59
350.033	0.55
350.395	0.54
350.757	0.47
351.118	0.43
351.48	0.47
351.842	0.46
352.203	0.51
352.565	0.39
352.927	0.42
353.288	0.41
353.65	0.44
354.011	0.46
354.372	0.5
354.734	0.54
355.095	0.51
355.456	0.48
355.817	0.53
356.179	0.52
356.54	0.57
356.901	0.5
357.262	0.51
357.623	0.5
357.984	0.55
358.345	0.57
358.705	0.57
359.066	0.56
359.427	0.55
359.788	0.63
360.148	0.71
360.509	0.72
360.87	0.75
361.23	0.75
361.591	0.84
361.951	0.78
362.312	0.8
362.672	0.84
363.032	0.83
363.393	0.85
363.753	0.79
364.113	0.77
364.473	0.74
364.833	0.77
365.193	0.75
365.553	0.75
365.913	0.7
366.273	0.68
366.633	0.72
366.993	0.62
367.353	0.58
367.713	0.55
368.072	0.52
368.432	0.54
368.792	0.49
369.151	0.41
369.511	0.4
369.87	0.33
370.23	0.35
370.589	0.3
370.949	0.35
371.308	0.33
371.667	0.36
372.027	0.31
372.386	0.28
372.745	0.34
373.104	0.37
373.463	0.36
373.822	0.37
374.181	0.41
374.54	0.42
374.899	0.5
375.258	0.45
375.617	0.41
375.975	0.44
376.334	0.46
376.693	0.51
377.052	0.56
377.41	0.53
377.769	0.56
378.127	0.59
378.486	0.58
378.844	0.61
379.202	0.57
379.561	0.51
379.919	0.51
380.277	0.52
380.636	0.42
380.994	0.44
381.352	0.4
381.71	0.37
382.068	0.38
382.426	0.41
382.784	0.37
383.142	0.33
383.5	0.35
383.857	0.33
384.215	0.33
384.573	0.3
384.931	0.35
385.288	0.31
385.646	0.24
386.003	0.21
386.361	0.24
386.718	0.2
387.076	0.22
387.433	0.15
387.791	0.12
388.148	0.16
388.505	0.18
388.862	0.22
389.22	0.23
389.577	0.28
389.934	0.29
390.291	0.29
390.648	0.32
391.005	0.29
391.362	0.25
391.718	0.3
392.075	0.25
392.432	0.22
392.789	0.21
393.145	0.26
393.502	0.28
393.859	0.24
394.215	0.3
394.572	0.34
394.928	0.35
395.285	0.31
395.641	0.34
395.997	0.34
396.354	0.41
396.71	0.44
397.066	0.41
397.422	0.51
397.778	0.4
398.134	0.4
398.491	0.37
398.846	0.36
399.202	0.42
399.558	0.35
399.914	0.42
400.27	0.44
400.626	0.37
400.981	0.36
401.337	0.34
401.693	0.38
402.048	0.34
402.404	0.38
402.759	0.44
403.115	0.43
403.47	0.39
403.826	0.4
404.181	0.38
404.536	0.35
404.892	0.28
405.247	0.24
405.602	0.19
405.957	0.19
406.312	0.13
406.667	0.18
407.022	0.17
407.377	0.15
407.732	0.2
408.087	0.13
408.442	0.12
408.796	0.07
409.151	0.12
409.506	0.24
409.86	0.26
410.215	0.27
410.57	0.23
410.924	0.32
411.279	0.25
411.633	0.2
411.987	0.2
412.342	0.28
412.696	0.25
413.05	0.29
413.404	0.35
413.758	0.44
414.113	0.48
414.467	0.55
414.821	0.54
415.175	0.58
415.529	0.55
415.882	0.57
416.236	0.61
416.59	0.59
416.944	0.62
417.298	0.74
417.651	0.72
418.005	0.78
418.358	0.74
418.712	0.76
419.065	0.7
419.419	0.71
419.772	0.56
420.126	0.67
420.479	0.69
420.832	0.64
421.185	0.63
421.539	0.66
421.892	0.65
422.245	0.62
422.598	0.63
422.951	0.71
423.304	0.72
423.657	0.71
424.01	0.72
424.363	0.76
424.715	0.73
425.068	0.69
425.421	0.68
425.773	0.69
426.126	0.82
426.479	0.79
426.831	0.76
427.184	0.72
427.536	0.79
427.889	0.87
428.241	0.88
428.593	0.97
428.945	0.96
429.298	1.01
429.65	1.03
430.002	1.06
430.354	1.1
430.706	1.13
431.058	1.22
431.41	1.16
431.762	1.02
432.114	0.99
432.466	1.05
432.817	1.04
433.169	1.08
433.521	1.16
433.872	1.26
434.224	1.32
434.576	1.29
434.927	1.12
435.279	1.1
435.63	1.07
435.981	1.11
436.333	1.11
436.684	1.17
437.035	1.19
437.387	1.17
437.738	1.09
438.089	1.04
438.44	1.05
438.791	1.02
439.142	1.01
439.493	1.03
439.844	1.02
440.195	1.07
440.545	1.13
440.896	1.18
441.247	1.2
441.598	1.19
441.948	1.23
442.299	1.19
442.649	1.13
443	1.08
443.35	1.06
443.701	1.09
444.051	1.09
444.401	1.1
444.752	1.12
445.102	1.12
445.452	0.99
445.802	0.93
446.152	0.95
446.502	1.03
446.852	0.99
447.202	0.98
447.552	1.01
447.902	1.07
448.252	0.98
448.602	1.41
448.952	1.44
449.301	1.43
449.651	1.42
450.001	1.4
450.35	1.35
450.7	1.3
451.049	1.29
451.399	1.43
451.748	1.48
452.097	1.64
452.447	1.6
452.796	1.73
453.145	1.84
453.494	1.73
453.843	1.76
454.193	1.91
454.542	1.95
454.891	2.04
455.239	2
455.588	2.13
455.937	2.14
456.286	2.12
456.635	2.02
456.984	2.13
457.332	1.66
457.681	1.62
458.03	1.76
458.378	1.72
458.727	1.74
459.075	1.83
459.423	1.95
459.772	1.95
460.12	1.85
460.468	1.85
460.817	1.85
461.165	1.95
461.513	1.95
461.861	1.9
462.209	2.11
462.557	2.2
462.905	2.17
463.253	2.21
463.601	2.23
463.949	2.31
464.297	2.27
464.644	2.38
464.992	2.42
465.34	2.47
465.687	2.56
466.035	2.47
466.383	2.59
466.73	2.53
467.078	2.55
467.425	2.55
467.772	2.69
468.12	2.62
468.467	2.65
468.814	2.66
469.161	2.67
469.508	2.69
469.856	2.64
470.203	2.62
470.55	2.53
470.897	2.47
471.243	2.3
471.59	2.32
471.937	2.34
472.284	2.27
472.631	2.17
472.977	2.23
473.324	2.19
473.671	2.1
474.017	2.13
474.364	1.95
474.71	2.04
475.057	1.97
475.403	1.94
475.749	1.89
476.096	1.89
476.442	1.79
476.788	1.82
477.134	1.9
477.48	1.9
477.826	1.86
478.172	1.75
478.518	1.8
478.864	1.79
479.21	1.91
479.556	1.83
479.902	1.9
480.248	1.88
480.593	1.91
480.939	1.91
481.285	1.99
481.63	1.97
481.976	1.96
482.321	2.01
482.667	2.04
483.012	2.14
483.357	2.18
483.703	2.24
484.048	2.37
484.393	2.59
484.738	2.67
485.084	2.69
485.429	2.8
485.774	2.88
486.119	2.97
486.464	3.15
486.808	3.34
487.153	3.44
487.498	3.64
487.843	3.72
488.188	4.01
488.532	4.26
488.877	4.49
489.222	4.79
489.566	5.15
489.911	5.5
490.255	5.85
490.6	6.22
490.944	6.64
491.288	6.95
491.633	7.4
491.977	7.79
492.321	8.3
492.665	8.7
493.009	9.15
493.353	9.72
493.697	10.3
494.041	10.86
494.385	11.41
494.729	12.03
495.073	12.63
495.417	13.25
495.76	13.95
496.104	14.66
496.448	15.41
496.791	16.25
497.135	16.94
497.479	17.77
497.822	18.46
498.165	19.2
498.509	20.05
498.852	20.88
499.196	21.79
499.539	22.57
499.882	23.43
500.225	24.25
500.568	25.11
500.911	25.81
501.254	26.72
501.597	27.5
501.94	28.29
502.283	29.05
502.626	29.8
502.969	30.55
503.312	31.25
503.654	32.04
503.997	32.77
504.34	33.48
504.682	34.19
505.025	34.83
505.367	35.39
505.71	36.05
506.052	36.7
506.395	37.41
506.737	38.1
507.079	38.72
507.421	39.34
507.764	39.94
508.106	40.46
508.448	41.01
508.79	41.57
509.132	42.01
509.474	42.6
509.816	42.99
510.158	43.43
510.499	43.8
510.841	44.3
511.183	44.76
511.525	45.2
511.866	45.71
512.208	45.98
512.549	46.41
512.891	46.93
513.232	47.45
513.574	47.97
513.915	48.31
514.256	48.77
514.598	49.12
514.939	49.54
515.28	49.89
515.621	50.26
515.962	50.56
516.303	50.93
516.644	51.4
516.985	51.83
517.326	52.14
517.667	52.6
518.008	52.8
518.349	53.16
518.69	53.5
519.03	53.78
519.371	54.14
519.712	54.37
520.052	54.71
520.393	54.9
520.733	55.36
521.074	55.73
521.414	55.92
521.754	56.08
522.095	56.27
522.435	56.56
522.775	56.72
523.115	57.02
523.455	57.09
523.795	57.26
524.135	57.49
524.475	57.69
524.815	57.76
525.155	58.11
525.495	58.23
525.835	58.44
526.175	58.58
526.514	58.75
526.854	58.81
527.194	59.02
527.533	59.29
527.873	59.34
528.212	59.52
528.552	59.65
528.891	59.78
529.23	59.85
529.57	59.91
529.909	60.07
530.248	60
530.587	60.31
530.927	60.49
531.266	60.69
531.605	60.82
531.944	60.93
532.283	61.14
532.621	61.11
532.96	61.36
533.299	61.44
533.638	61.42
533.977	61.53
534.315	61.65
534.654	61.67
534.992	61.95
535.331	62.07
535.67	62.29
536.008	62.4
536.346	62.6
536.685	62.59
537.023	62.57
537.361	62.84
537.7	62.87
538.038	62.82
538.376	62.89
538.714	63.28
539.052	63.18
539.39	63.16
539.728	63.09
540.066	63.08
540.404	63.28
540.741	63.35
541.079	63.5
541.417	63.58
541.755	63.73
542.092	63.68
542.43	63.61
542.767	63.6
543.105	63.63
543.442	63.57
543.78	63.68
544.117	63.62
544.454	63.81
544.792	63.7
545.129	63.87
545.466	64
545.803	64.09
546.14	64.22
546.477	64.39
546.814	64.42
547.151	64.19
547.488	64.15
547.825	64.21
548.162	64.26
548.499	64.4
548.835	64.5
549.172	64.46
549.509	64.41
549.845	64.44
550.182	64.37
550.518	64.57
550.855	64.76
551.191	64.95
551.528	65.04
551.864	65.26
552.2	65.21
552.537	65.31
552.873	65.2
553.209	65.41
553.545	65.34
553.881	65.43
554.217	65.3
554.553	65.42
554.889	65.55
555.225	65.57
555.561	65.67
555.896	65.86
556.232	65.97
556.568	66.21
556.903	66.22
557.239	66.09
557.575	66.18
557.91	66.27
558.245	66.27
558.581	66.36
558.916	66.24
559.252	66.32
559.587	66.13
559.922	66.2
560.257	66.17
560.592	66.4
560.928	66.31
561.263	66.4
561.598	66.44
561.933	66.67
562.267	66.6
562.602	66.62
562.937	66.83
563.272	66.92
563.607	66.76
563.941	67.11
564.276	67.14
564.611	67.15
564.945	67.28
565.28	67.43
565.614	67.38
565.949	67.38
566.283	67.46
566.617	67.59
566.951	67.77
567.286	67.95
567.62	67.98
567.954	68.22
568.288	68.35
568.622	68.27
568.956	68.18
569.29	68.39
569.624	68.33
569.958	68.27
570.292	68.14
570.626	68.28
570.959	68.47
571.293	68.36
571.627	68.38
571.96	68.43
572.294	68.37
572.627	68.3
572.961	68.32
573.294	68.19
573.627	68.24
573.961	68.3
574.294	68.34
574.627	68.49
574.961	68.56
575.294	68.5
575.627	68.59
575.96	68.58
576.293	68.32
576.626	68.19
576.959	68.34
577.292	68.33
577.624	68.21
577.957	68.38
578.29	68.46
578.623	68.56
578.955	68.59
579.288	68.47
579.62	68.44
579.953	68.32
580.285	68.52
580.618	68.62
580.95	68.75
581.282	68.83
581.615	68.95
581.947	68.86
582.279	69.03
582.611	69.02
582.943	68.87
583.275	68.85
583.607	68.97
583.939	68.74
584.271	68.73
584.603	69.01
584.935	69.09
585.267	69.07
585.598	69.25
585.93	69.39
586.262	69.33
586.593	69.36
586.925	69.32
587.256	69.2
587.588	69.17
587.919	69.25
588.25	69.38
588.582	69.31
588.913	69.33
589.244	69.39
589.575	69.5
589.907	69.45
590.238	69.46
590.569	69.44
590.9	69.64
591.231	69.67
591.562	69.59
591.892	69.53
592.223	69.62
592.554	69.71
592.885	69.72
593.215	69.79
593.546	69.67
593.877	69.57
594.207	69.44
594.538	69.43
594.868	69.31
595.198	69.31
595.529	69.33
595.859	69.46
596.189	69.47
596.52	69.57
596.85	69.67
597.18	69.54
597.51	69.5
597.84	69.43
598.17	69.45
598.5	69.47
598.83	69.42
599.16	69.32
599.489	69.35
599.819	69.42
600.149	69.32
600.479	69.4
600.808	69.16
601.138	69.18
601.467	69.03
601.797	69.11
602.126	69.17
602.456	69.36
602.785	69.43
603.114	69.58
603.443	69.67
603.773	69.61
604.102	69.57
604.431	69.63
604.76	69.43
605.089	69.2
605.418	69.2
605.747	69.24
606.076	69.24
606.405	69.19
606.733	69.18
607.062	69.14
607.391	68.96
607.72	68.94
608.048	68.7
608.377	68.68
608.705	68.6
609.034	68.82
609.362	68.54
609.69	68.77
610.019	68.78
610.347	68.86
610.675	68.81
611.004	68.77
611.332	68.69
611.66	68.83
611.988	68.98
612.316	69.16
612.644	69.01
612.972	69.07
613.3	69.22
613.627	69.32
613.955	69.17
614.283	69.02
614.611	68.99
614.938	68.98
615.266	68.98
615.593	69.14
615.921	68.99
616.248	69.29
616.576	69.35
616.903	69.5
617.23	69.29
617.558	69.56
617.885	69.43
618.212	69.38
618.539	69.04
618.866	68.59
619.193	68.38
619.52	68.65
619.847	68.5
620.174	68.55
620.501	68.13
620.828	67.97
621.155	67.99
621.481	67.75
621.808	67.57
622.135	67.66
622.461	67.44
622.788	67.36
623.114	67.54
623.441	67.27
623.767	67.24
624.093	67.29
624.42	66.87
624.746	67.23
625.072	66.96
625.398	67.52
625.725	67.69
626.051	67.61
626.377	67.69
626.703	67.63
627.029	67.79
627.354	67.71
627.68	67
628.006	66.61
628.332	66.5
628.658	66.57
628.983	66.81
629.309	67.11
629.634	67.38
629.96	67.42
630.285	67.2
630.611	67.99
630.936	68.33
631.262	68.51
631.587	68.68
631.912	68.75
632.237	69.02
632.562	69.58
632.887	69.33
633.213	69.72
633.538	69.57
633.863	69.34
634.187	69.48
634.512	69.38
634.837	69.56
635.162	69.67
635.487	69.66
635.811	70.17
636.136	70.73
636.461	70.8
636.785	70.99
637.11	71.32
637.434	71.08
637.758	71.55
638.083	71.14
638.407	71.02
638.731	70.41
639.056	70.48
639.38	70.4
639.704	71.16
640.028	71.38
640.352	71.38
640.676	71.36
641	71.44
641.324	70.94
641.648	70.85
641.972	71.05
642.295	70.77
642.619	70.49
642.943	70.03
643.266	70.08
643.59	69.97
643.913	69.46
644.237	69.61
644.56	69.17
644.884	68.95
645.207	69.15
645.53	68.94
645.854	68.25
646.177	68.2
646.5	68.68
646.823	69.05
647.146	68.7
647.469	68.58
647.792	67.86
648.115	67.41
648.438	67.7
648.761	69.48
649.084	69.99
649.406	70.57
649.729	70.13
650.052	69.81
650.374	69.64
650.697	69.84
651.019	69.85
651.342	69.91
651.664	70.15
651.987	70.41
652.309	70.42
652.631	70.55
652.953	70.77
653.276	70.44
653.598	70.5
653.92	70.62
654.242	70.76
654.564	70.68
654.886	70.54
655.208	70.64
655.53	70.61
655.851	70.79
656.173	71.16
656.495	71.23
656.816	70.38
657.138	70.19
657.46	69.7
657.781	70
658.103	70.26
658.424	71.13
658.746	70.3
659.067	70.93
659.388	70.91
659.709	70.38
660.031	69.46
660.352	68.61
660.673	67.5
660.994	67.15
661.315	68.67
661.636	68.3
661.957	67.84
662.278	68.36
662.599	68.67
662.919	68.53
663.24	68.77
663.561	67.61
663.881	67.16
664.202	65.61
664.523	64.31
