Data from T2_Reflection__84__19-45-56-174.txt Node

Date: Fri Jun 04 19:45:56 CEST 2021
User: mabdelazizm
Spectrometer: FLMS18565
Trigger mode: 0
Integration Time (sec): 2.000000E0
Scans to average: 1
Electric dark correction enabled: true
Nonlinearity correction enabled: false
Boxcar width: 12
XAxis mode: Wavelengths
Number of Pixels in Spectrum: 2048
>>>>>Begin Spectral Data<<<<<
179.071	-144.68
179.452	-114.04
179.833	-289.68
180.214	-313.46
180.595	-284.46
180.977	-493.92
181.358	-370.16
181.739	-332.4
182.12	-166.31
182.501	-240.79
182.882	-301.17
183.262	-1242.86
183.643	-194.92
184.024	-141.81
184.405	-70.68
184.786	-48.89
185.166	-48.38
185.547	-13.63
185.927	14.82
186.308	10.9
186.689	9.84
187.069	18.12
187.449	9.41
187.83	0.93
188.21	-4.6
188.59	-0.85
188.971	8.2
189.351	6.86
189.731	10.61
190.111	8.82
190.491	11.43
190.871	8.83
191.251	12.99
191.631	11.58
192.011	11.51
192.391	10.9
192.771	16.29
193.151	12.94
193.531	13.74
193.91	13.69
194.29	12.97
194.67	12.03
195.049	7.59
195.429	6.07
195.808	5.29
196.188	2.5
196.567	1.26
196.946	4.18
197.326	3.23
197.705	4.6
198.084	2.24
198.464	-1.91
198.843	0.28
199.222	-2.08
199.601	-1.4
199.98	-2.79
200.359	-1.61
200.738	-2.12
201.117	-6.61
201.496	-8.08
201.875	-5.32
202.254	-6.18
202.632	-8.76
203.011	-6.96
203.39	-7.56
203.768	-5.99
204.147	-4.41
204.525	-4.61
204.904	-8.65
205.282	-5.6
205.661	-7.06
206.039	-6.64
206.418	-8.73
206.796	-4.66
207.174	-5.32
207.552	-4.11
207.931	-4.18
208.309	-5
208.687	-4.36
209.065	-2.26
209.443	-3.08
209.821	-7.38
210.199	-8.38
210.577	-7.06
210.954	-5.19
211.332	-7.39
211.71	-8.07
212.088	-6.15
212.465	-6.57
212.843	-4.48
213.221	-3.31
213.598	-2.27
213.976	-3.33
214.353	-2.32
214.731	-6.13
215.108	-4.02
215.485	-3.88
215.863	-3.18
216.24	-4.5
216.617	-5.22
216.994	-5.12
217.371	-4.7
217.749	-4.41
218.126	-3.67
218.503	-4.37
218.88	-4.77
219.256	-2.78
219.633	-1.03
220.01	-0.42
220.387	0.92
220.764	1.59
221.14	2.23
221.517	2.11
221.894	1.84
222.27	1.61
222.647	0.87
223.023	0.8
223.4	1.53
223.776	2.34
224.153	2.7
224.529	3.13
224.905	3.91
225.282	4.31
225.658	4.58
226.034	4.67
226.41	5.21
226.786	5.1
227.162	5.57
227.538	5.37
227.914	5.36
228.29	5.27
228.666	5.23
229.042	4.97
229.418	5.01
229.793	4.88
230.169	5.07
230.545	5.23
230.92	5.49
231.296	5.54
231.672	5.57
232.047	5.67
232.422	5.45
232.798	5.59
233.173	5.55
233.549	5.73
233.924	5.81
234.299	5.75
234.674	5.86
235.05	5.79
235.425	5.9
235.8	5.82
236.175	5.94
236.55	5.8
236.925	5.93
237.3	6.11
237.675	6.26
238.049	6.26
238.424	6.3
238.799	6.49
239.174	6.56
239.548	6.58
239.923	6.51
240.297	6.45
240.672	6.54
241.046	6.69
241.421	6.76
241.795	6.8
242.17	6.75
242.544	6.82
242.918	6.81
243.293	6.77
243.667	6.81
244.041	6.84
244.415	6.9
244.789	6.97
245.163	7.05
245.537	7.12
245.911	7.29
246.285	7.3
246.659	7.26
247.033	7.29
247.406	7.39
247.78	7.38
248.154	7.28
248.528	7.35
248.901	7.35
249.275	7.38
249.648	7.46
250.022	7.44
250.395	7.33
250.769	7.32
251.142	7.39
251.515	7.46
251.888	7.41
252.262	7.44
252.635	7.45
253.008	7.45
253.381	7.45
253.754	7.46
254.127	7.41
254.5	7.37
254.873	7.29
255.246	7.2
255.619	7.19
255.992	7.22
256.364	7.23
256.737	7.16
257.11	7.18
257.483	7.23
257.855	7.2
258.228	7.21
258.6	7.17
258.973	7.19
259.345	7.24
259.718	7.23
260.09	7.17
260.462	7.1
260.834	7.12
261.207	7.16
261.579	7.18
261.951	7.21
262.323	7.16
262.695	7.2
263.067	7.21
263.439	7.25
263.811	7.26
264.183	7.3
264.555	7.35
264.927	7.33
265.298	7.26
265.67	7.19
266.042	7.19
266.413	7.18
266.785	7.13
267.156	7.07
267.528	7.06
267.899	7.05
268.271	7.03
268.642	6.89
269.013	6.92
269.385	6.93
269.756	6.94
270.127	6.84
270.498	6.79
270.87	6.74
271.241	6.72
271.612	6.69
271.983	6.6
272.354	6.53
272.724	6.49
273.095	6.52
273.466	6.5
273.837	6.43
274.208	6.46
274.578	6.47
274.949	6.51
275.32	6.5
275.69	6.46
276.061	6.44
276.431	6.43
276.802	6.39
277.172	6.41
277.542	6.35
277.913	6.4
278.283	6.34
278.653	6.36
279.023	6.32
279.394	6.35
279.764	6.36
280.134	6.36
280.504	6.34
280.874	6.33
281.244	6.33
281.614	6.32
281.983	6.26
282.353	6.29
282.723	6.32
283.093	6.31
283.462	6.28
283.832	6.25
284.202	6.22
284.571	6.18
284.941	6.2
285.31	6.28
285.68	6.29
286.049	6.24
286.418	6.19
286.788	6.28
287.157	6.27
287.526	6.3
287.895	6.26
288.264	6.35
288.633	6.3
289.002	6.27
289.371	6.3
289.74	6.25
290.109	6.27
290.478	6.22
290.847	6.24
291.216	6.23
291.585	6.1
291.953	6.01
292.322	6.01
292.691	5.98
293.059	5.95
293.428	5.92
293.796	5.99
294.165	5.98
294.533	5.88
294.901	5.81
295.27	5.86
295.638	5.86
296.006	5.77
296.374	5.71
296.743	5.69
297.111	5.71
297.479	5.62
297.847	5.64
298.215	5.64
298.583	5.61
298.95	5.63
299.318	5.6
299.686	5.59
300.054	5.57
300.422	5.63
300.789	5.6
301.157	5.59
301.525	5.57
301.892	5.53
302.26	5.51
302.627	5.53
302.994	5.42
303.362	5.37
303.729	5.41
304.097	5.43
304.464	5.37
304.831	5.4
305.198	5.37
305.565	5.4
305.932	5.37
306.299	5.32
306.666	5.31
307.033	5.27
307.4	5.26
307.767	5.14
308.134	5.11
308.501	5.15
308.867	5.12
309.234	5.09
309.601	5.06
309.967	5.03
310.334	5.05
310.701	4.99
311.067	4.96
311.433	4.99
311.8	4.91
312.166	4.96
312.533	4.91
312.899	4.82
313.265	4.8
313.631	4.82
313.997	4.76
314.363	4.73
314.729	4.69
315.096	4.7
315.461	4.66
315.827	4.67
316.193	4.66
316.559	4.66
316.925	4.68
317.291	4.66
317.656	4.61
318.022	4.61
318.388	4.64
318.753	4.61
319.119	4.64
319.484	4.64
319.85	4.69
320.215	4.68
320.581	4.64
320.946	4.66
321.311	4.59
321.676	4.6
322.042	4.6
322.407	4.6
322.772	4.63
323.137	4.67
323.502	4.69
323.867	4.7
324.232	4.62
324.597	4.66
324.962	4.65
325.327	4.67
325.691	4.68
326.056	4.68
326.421	4.7
326.785	4.65
327.15	4.64
327.514	4.6
327.879	4.61
328.243	4.6
328.608	4.61
328.972	4.59
329.337	4.59
329.701	4.62
330.065	4.6
330.429	4.62
330.794	4.65
331.158	4.67
331.522	4.65
331.886	4.59
332.25	4.54
332.614	4.51
332.978	4.47
333.342	4.51
333.705	4.44
334.069	4.37
334.433	4.3
334.797	4.26
335.16	4.24
335.524	4.19
335.887	4.2
336.251	4.2
336.614	4.16
336.978	4.13
337.341	4.1
337.705	4
338.068	3.99
338.431	3.99
338.794	3.93
339.158	3.88
339.521	3.9
339.884	3.82
340.247	3.77
340.61	3.78
340.973	3.77
341.336	3.77
341.699	3.71
342.062	3.67
342.424	3.72
342.787	3.76
343.15	3.74
343.512	3.77
343.875	3.75
344.238	3.79
344.6	3.76
344.963	3.76
345.325	3.72
345.688	3.66
346.05	3.62
346.412	3.61
346.775	3.64
347.137	3.62
347.499	3.6
347.861	3.6
348.223	3.62
348.585	3.59
348.947	3.63
349.309	3.61
349.671	3.6
350.033	3.59
350.395	3.58
350.757	3.56
351.118	3.55
351.48	3.47
351.842	3.5
352.203	3.51
352.565	3.48
352.927	3.49
353.288	3.48
353.65	3.52
354.011	3.5
354.372	3.53
354.734	3.58
355.095	3.61
355.456	3.6
355.817	3.6
356.179	3.6
356.54	3.66
356.901	3.67
357.262	3.62
357.623	3.58
357.984	3.6
358.345	3.68
358.705	3.65
359.066	3.57
359.427	3.53
359.788	3.58
360.148	3.61
360.509	3.65
360.87	3.65
361.23	3.62
361.591	3.64
361.951	3.61
362.312	3.6
362.672	3.57
363.032	3.6
363.393	3.59
363.753	3.57
364.113	3.52
364.473	3.49
364.833	3.5
365.193	3.45
365.553	3.42
365.913	3.35
366.273	3.37
366.633	3.38
366.993	3.24
367.353	3.16
367.713	3.14
368.072	3.19
368.432	3.23
368.792	3.21
369.151	3.23
369.511	3.24
369.87	3.16
370.23	3.23
370.589	3.22
370.949	3.21
371.308	3.14
371.667	3.07
372.027	3.02
372.386	3.03
372.745	3.09
373.104	3.11
373.463	3.1
373.822	3.08
374.181	3.08
374.54	3.09
374.899	3.15
375.258	3.09
375.617	3.13
375.975	3.21
376.334	3.19
376.693	3.32
377.052	3.37
377.41	3.32
377.769	3.31
378.127	3.26
378.486	3.18
378.844	3.17
379.202	3.13
379.561	3.08
379.919	3.14
380.277	3.23
380.636	3.28
380.994	3.28
381.352	3.23
381.71	3.17
382.068	3.14
382.426	3.16
382.784	3.16
383.142	3.15
383.5	3.17
383.857	3.18
384.215	3.18
384.573	3.11
384.931	3.13
385.288	3.16
385.646	3.01
386.003	2.98
386.361	2.96
386.718	2.94
387.076	2.95
387.433	2.99
387.791	3.01
388.148	3.03
388.505	3.02
388.862	2.94
389.22	2.92
389.577	2.93
389.934	3
390.291	3.01
390.648	3.03
391.005	2.99
391.362	2.91
391.718	2.88
392.075	2.84
392.432	2.85
392.789	2.8
393.145	2.85
393.502	2.85
393.859	2.82
394.215	2.81
394.572	2.81
394.928	2.79
395.285	2.77
395.641	2.78
395.997	2.78
396.354	2.81
396.71	2.82
397.066	2.81
397.422	2.86
397.778	2.82
398.134	2.79
398.491	2.75
398.846	2.67
399.202	2.69
399.558	2.58
399.914	2.68
400.27	2.73
400.626	2.71
400.981	2.78
401.337	2.71
401.693	2.74
402.048	2.71
402.404	2.78
402.759	2.76
403.115	2.75
403.47	2.79
403.826	2.8
404.181	2.81
404.536	2.79
404.892	2.76
405.247	2.71
405.602	2.65
405.957	2.6
406.312	2.63
406.667	2.64
407.022	2.62
407.377	2.66
407.732	2.68
408.087	2.64
408.442	2.76
408.796	2.73
409.151	2.74
409.506	2.8
409.86	2.78
410.215	2.81
410.57	2.76
410.924	2.8
411.279	2.71
411.633	2.66
411.987	2.66
412.342	2.7
412.696	2.67
413.05	2.73
413.404	2.82
413.758	2.89
414.113	2.94
414.467	3
414.821	2.99
415.175	2.97
415.529	3.02
415.882	3.03
416.236	2.98
416.59	2.99
416.944	2.96
417.298	3.03
417.651	3.04
418.005	3.09
418.358	3.12
418.712	3.12
419.065	3.13
419.419	3.18
419.772	3.1
420.126	3.27
420.479	3.41
420.832	3.41
421.185	3.4
421.539	3.41
421.892	3.44
422.245	3.44
422.598	3.45
422.951	3.46
423.304	3.41
423.657	3.41
424.01	3.42
424.363	3.38
424.715	3.44
425.068	3.46
425.421	3.46
425.773	3.47
426.126	3.54
426.479	3.53
426.831	3.52
427.184	3.5
427.536	3.51
427.889	3.47
428.241	3.48
428.593	3.58
428.945	3.54
429.298	3.5
429.65	3.53
430.002	3.57
430.354	3.61
430.706	3.58
431.058	3.51
431.41	3.48
431.762	3.44
432.114	3.5
432.466	3.55
432.817	3.59
433.169	3.67
433.521	3.64
433.872	3.7
434.224	3.73
434.576	3.74
434.927	3.63
435.279	3.56
435.63	3.62
435.981	3.61
436.333	3.67
436.684	3.68
437.035	3.68
437.387	3.67
437.738	3.59
438.089	3.57
438.44	3.51
438.791	3.38
439.142	3.39
439.493	3.36
439.844	3.44
440.195	3.47
440.545	3.51
440.896	3.55
441.247	3.56
441.598	3.51
441.948	3.44
442.299	3.44
442.649	3.43
443	3.43
443.35	3.5
443.701	3.51
444.051	3.53
444.401	3.46
444.752	3.42
445.102	3.32
445.452	3.25
445.802	3.17
446.152	3.1
446.502	3.13
446.852	3.05
447.202	3.11
447.552	3.17
447.902	3.16
448.252	3.08
448.602	2.61
448.952	2.53
449.301	2.48
449.651	2.47
450.001	2.41
450.35	2.4
450.7	2.43
451.049	2.45
451.399	2.52
451.748	2.48
452.097	2.53
452.447	2.41
452.796	2.52
453.145	2.59
453.494	2.61
453.843	2.65
454.193	2.84
454.542	2.92
454.891	3.06
455.239	2.97
455.588	3.06
455.937	2.93
456.286	2.93
456.635	2.87
456.984	2.89
457.332	3.37
457.681	3.45
458.03	3.53
458.378	3.43
458.727	3.46
459.075	3.48
459.423	3.54
459.772	3.51
460.12	3.37
460.468	3.39
460.817	3.35
461.165	3.48
461.513	3.36
461.861	3.3
462.209	3.36
462.557	3.42
462.905	3.28
463.253	3.3
463.601	3.36
463.949	3.39
464.297	3.37
464.644	3.49
464.992	3.52
465.34	3.51
465.687	3.63
466.035	3.58
466.383	3.61
466.73	3.6
467.078	3.63
467.425	3.63
467.772	3.75
468.12	3.65
468.467	3.62
468.814	3.68
469.161	3.7
469.508	3.75
469.856	3.76
470.203	3.78
470.55	3.67
470.897	3.7
471.243	3.69
471.59	3.75
471.937	3.74
472.284	3.7
472.631	3.64
472.977	3.69
473.324	3.71
473.671	3.63
474.017	3.73
474.364	3.61
474.71	3.68
475.057	3.61
475.403	3.56
475.749	3.58
476.096	3.58
476.442	3.53
476.788	3.56
477.134	3.58
477.48	3.59
477.826	3.6
478.172	3.49
478.518	3.54
478.864	3.63
479.21	3.81
479.556	3.75
479.902	3.7
480.248	3.74
480.593	3.7
480.939	3.63
481.285	3.68
481.63	3.69
481.976	3.7
482.321	3.73
482.667	3.71
483.012	3.75
483.357	3.78
483.703	3.84
484.048	3.98
484.393	4.04
484.738	4.05
485.084	4.05
485.429	4.1
485.774	4.12
486.119	4.19
486.464	4.27
486.808	4.36
487.153	4.39
487.498	4.35
487.843	4.31
488.188	4.41
488.532	4.51
488.877	4.52
489.222	4.65
489.566	4.79
489.911	4.99
490.255	5.15
490.6	5.21
490.944	5.38
491.288	5.54
491.633	5.75
491.977	5.86
492.321	6.1
492.665	6.13
493.009	6.27
493.353	6.47
493.697	6.67
494.041	6.85
494.385	7.12
494.729	7.32
495.073	7.53
495.417	7.77
495.76	8.05
496.104	8.35
496.448	8.65
496.791	8.98
497.135	9.28
497.479	9.66
497.822	10.03
498.165	10.45
498.509	10.79
498.852	11.12
499.196	11.58
499.539	11.95
499.882	12.35
500.225	12.72
500.568	13.16
500.911	13.43
501.254	13.87
501.597	14.26
501.94	14.74
502.283	15.12
502.626	15.61
502.969	15.96
503.312	16.38
503.654	16.82
503.997	17.24
504.34	17.58
504.682	18.03
505.025	18.37
505.367	18.77
505.71	19.14
506.052	19.46
506.395	19.84
506.737	20.2
507.079	20.59
507.421	21.06
507.764	21.44
508.106	21.77
508.448	22.17
508.79	22.53
509.132	22.88
509.474	23.31
509.816	23.65
510.158	24.08
510.499	24.38
510.841	24.76
511.183	25.1
511.525	25.51
511.866	25.82
512.208	26.13
512.549	26.53
512.891	26.91
513.232	27.28
513.574	27.77
513.915	28.12
514.256	28.53
514.598	28.94
514.939	29.26
515.28	29.55
515.621	29.81
515.962	30.05
516.303	30.46
516.644	30.91
516.985	31.23
517.326	31.58
517.667	31.86
518.008	32.16
518.349	32.56
518.69	32.83
519.03	33.21
519.371	33.57
519.712	33.88
520.052	34.12
520.393	34.36
520.733	34.64
521.074	34.94
521.414	35.3
521.754	35.51
522.095	35.74
522.435	35.92
522.775	36.13
523.115	36.46
523.455	36.68
523.795	36.89
524.135	37.09
524.475	37.26
524.815	37.37
525.155	37.64
525.495	37.7
525.835	37.81
526.175	38.03
526.514	38.22
526.854	38.32
527.194	38.42
527.533	38.48
527.873	38.49
528.212	38.48
528.552	38.68
528.891	38.89
529.23	39.08
529.57	39.2
529.909	39.42
530.248	39.57
530.587	39.78
530.927	39.93
531.266	40.04
531.605	40.09
531.944	40.14
532.283	40.31
532.621	40.33
532.96	40.63
533.299	40.64
533.638	40.66
533.977	40.78
534.315	41.08
534.654	41.15
534.992	41.22
535.331	41.24
535.67	41.35
536.008	41.43
536.346	41.71
536.685	41.82
537.023	41.88
537.361	42.12
537.7	42.06
538.038	42.12
538.376	42
538.714	42.11
539.052	42.03
539.39	42.03
539.728	42.03
540.066	42.08
540.404	42.15
540.741	42.27
541.079	42.41
541.417	42.27
541.755	42.37
542.092	42.29
542.43	42.32
542.767	42.24
543.105	42.23
543.442	42.34
543.78	42.38
544.117	42.45
544.454	42.55
544.792	42.51
545.129	42.59
545.466	42.61
545.803	42.51
546.14	42.64
546.477	42.58
546.814	42.69
547.151	42.5
547.488	42.64
547.825	42.59
548.162	42.68
548.499	42.65
548.835	42.87
549.172	42.92
549.509	43.04
549.845	43.09
550.182	43.13
550.518	43.11
550.855	43.23
551.191	43.31
551.528	43.35
551.864	43.35
552.2	43.54
552.537	43.57
552.873	43.72
553.209	43.8
553.545	43.77
553.881	43.82
554.217	43.74
554.553	43.85
554.889	43.89
555.225	43.81
555.561	44.03
555.896	44.16
556.232	44.39
556.568	44.57
556.903	44.58
557.239	44.45
557.575	44.45
557.91	44.47
558.245	44.52
558.581	44.55
558.916	44.76
559.252	44.89
559.587	44.93
559.922	45.11
560.257	45.16
560.592	45.16
560.928	45.26
561.263	45.27
561.598	45.28
561.933	45.42
562.267	45.44
562.602	45.55
562.937	45.65
563.272	45.77
563.607	45.84
563.941	45.98
564.276	45.96
564.611	46.03
564.945	46.05
565.28	46.28
565.614	46.15
565.949	46.15
566.283	46.11
566.617	46.22
566.951	46.3
567.286	46.43
567.62	46.34
567.954	46.36
568.288	46.36
568.622	46.44
568.956	46.34
569.29	46.34
569.624	46.24
569.958	46.26
570.292	46.25
570.626	46.32
570.959	46.55
571.293	46.52
571.627	46.57
571.96	46.64
572.294	46.72
572.627	46.69
572.961	46.67
573.294	46.67
573.627	46.65
573.961	46.85
574.294	46.88
574.627	46.98
574.961	47.06
575.294	47.04
575.627	47
575.96	47.06
576.293	47.01
576.626	47.01
576.959	47.03
577.292	47.14
577.624	47.16
577.957	47.2
578.29	47.21
578.623	47.23
578.955	47.2
579.288	47.07
579.62	47.09
579.953	47.08
580.285	47.13
580.618	47.03
580.95	46.99
581.282	47.03
581.615	47.04
581.947	46.94
582.279	46.87
582.611	46.89
582.943	46.83
583.275	46.76
583.607	46.81
583.939	46.82
584.271	46.78
584.603	46.88
584.935	46.89
585.267	46.84
585.598	46.91
585.93	47.01
586.262	47.05
586.593	47.1
586.925	47.13
587.256	47.2
587.588	47.12
587.919	47.11
588.25	47.09
588.582	47.07
588.913	47.13
589.244	47.24
589.575	47.33
589.907	47.38
590.238	47.43
590.569	47.55
590.9	47.63
591.231	47.68
591.562	47.62
591.892	47.56
592.223	47.54
592.554	47.58
592.885	47.6
593.215	47.6
593.546	47.4
593.877	47.33
594.207	47.25
594.538	47.26
594.868	47.23
595.198	47.22
595.529	47.09
595.859	47.1
596.189	47.16
596.52	47.26
596.85	47.37
597.18	47.33
597.51	47.27
597.84	47.15
598.17	47.12
598.5	47.08
598.83	47.06
599.16	47.1
599.489	47.11
599.819	47.19
600.149	47.21
600.479	47.18
600.808	47
601.138	46.87
601.467	46.82
601.797	46.98
602.126	46.9
602.456	46.98
602.785	47.04
603.114	47.02
603.443	46.99
603.773	46.89
604.102	46.93
604.431	46.89
604.76	46.81
605.089	46.59
605.418	46.51
605.747	46.51
606.076	46.45
606.405	46.28
606.733	46.36
607.062	46.28
607.391	45.97
607.72	45.9
608.048	45.73
608.377	45.74
608.705	45.79
609.034	45.94
609.362	45.97
609.69	46.13
610.019	46.09
610.347	46.07
610.675	46.04
611.004	46.01
611.332	45.99
611.66	46.07
611.988	46.25
612.316	46.31
612.644	46.29
612.972	46.41
613.3	46.35
613.627	46.46
613.955	46.39
614.283	46.32
614.611	46.4
614.938	46.52
615.266	46.56
615.593	46.74
615.921	46.66
616.248	46.65
616.576	46.58
616.903	46.5
617.23	46.38
617.558	46.35
617.885	46.03
618.212	46.1
618.539	46.09
618.866	45.59
619.193	45.22
619.52	45.19
619.847	45.1
620.174	45.12
620.501	45.04
620.828	44.93
621.155	44.68
621.481	44.6
621.808	44.62
622.135	44.94
622.461	45.11
622.788	45.21
623.114	44.95
623.441	44.66
623.767	44.41
624.093	44.48
624.42	44.58
624.746	44.59
625.072	44.66
625.398	44.87
625.725	44.89
626.051	44.83
626.377	44.74
626.703	44.64
627.029	45.12
627.354	45.35
627.68	45.21
628.006	45.18
628.332	45.11
628.658	45.07
628.983	44.98
629.309	44.72
629.634	44.78
629.96	44.39
630.285	43.87
630.611	43.8
630.936	43.62
631.262	43.79
631.587	44.06
631.912	44.51
632.237	44.6
632.562	45.13
632.887	45.28
633.213	44.87
633.538	44.76
633.863	44.78
634.187	45.1
634.512	44.9
634.837	45.01
635.162	44.72
635.487	44.55
635.811	44.54
636.136	44.74
636.461	44.43
636.785	44.17
637.11	44.59
637.434	44.94
637.758	44.89
638.083	44.68
638.407	44.38
638.731	44.23
639.056	44.16
639.38	44.27
639.704	44.45
640.028	44.26
640.352	44.05
640.676	43.62
641	43.06
641.324	43.08
641.648	42.69
641.972	42.15
642.295	41.83
642.619	41.96
642.943	41.27
643.266	41.19
643.59	40.88
643.913	40.95
644.237	40.94
644.56	40.72
644.884	41.08
645.207	40.8
645.53	40.66
645.854	40.98
646.177	41.6
646.5	42.44
646.823	42.49
647.146	42.49
647.469	42.46
647.792	41.87
648.115	41.79
648.438	42.04
648.761	43.87
649.084	44.46
649.406	44.25
649.729	44.14
650.052	44.32
650.374	44.19
650.697	44.25
651.019	44.36
651.342	44.34
651.664	44.4
651.987	44.34
652.309	44.28
652.631	44.38
652.953	44.39
653.276	44.2
653.598	44.08
653.92	43.96
654.242	43.95
654.564	43.93
654.886	43.8
655.208	43.73
655.53	43.67
655.851	43.68
656.173	43.94
656.495	43.9
656.816	43.07
657.138	42.61
657.46	42.49
657.781	42.05
658.103	41.4
658.424	41.08
658.746	40.37
659.067	40.32
659.388	40.26
659.709	40.21
660.031	40.33
660.352	39.87
660.673	39.24
660.994	38.36
661.315	38.77
661.636	39.46
661.957	39.45
662.278	39.59
662.599	38.93
662.919	38.32
663.24	38.44
