Data from T2_Reflection__59__19-29-14-206.txt Node

Date: Fri Jun 04 19:29:14 CEST 2021
User: mabdelazizm
Spectrometer: FLMS18565
Trigger mode: 0
Integration Time (sec): 2.000000E0
Scans to average: 1
Electric dark correction enabled: true
Nonlinearity correction enabled: false
Boxcar width: 12
XAxis mode: Wavelengths
Number of Pixels in Spectrum: 2048
>>>>>Begin Spectral Data<<<<<
179.071	-87.45
179.452	-67.36
179.833	-190.88
180.214	-182.69
180.595	-178.61
180.977	-335.36
181.358	-256.54
181.739	-222.35
182.12	-104.23
182.501	-193.47
182.882	-187.4
183.262	-822.86
183.643	-170.58
184.024	-121.45
184.405	-60.6
184.786	-44.5
185.166	-44.08
185.547	-21.86
185.927	-7.27
186.308	-6.95
186.689	9.85
187.069	16.56
187.449	13.54
187.83	7.95
188.21	10.52
188.59	9.96
188.971	6.43
189.351	4.94
189.731	4.4
190.111	5.82
190.491	6.49
190.871	5.73
191.251	8.5
191.631	3.79
192.011	6.47
192.391	4.98
192.771	7.38
193.151	7.23
193.531	8.41
193.91	8.06
194.29	6.85
194.67	7.05
195.049	5.81
195.429	4.13
195.808	3.94
196.188	-0.34
196.567	-1.5
196.946	3.55
197.326	4.02
197.705	2.59
198.084	-0.04
198.464	-0.17
198.843	2.24
199.222	2.06
199.601	1.44
199.98	0.39
200.359	-0.15
200.738	-1.27
201.117	-1.35
201.496	-3.08
201.875	-3.27
202.254	-2.67
202.632	-4.45
203.011	-3.3
203.39	-3.71
203.768	-2
204.147	-2.14
204.525	-5.35
204.904	-8.7
205.282	-7.58
205.661	-10.65
206.039	-10.24
206.418	-16.2
206.796	-13.89
207.174	-13.72
207.552	-12.85
207.931	-12.08
208.309	-12.43
208.687	-12.06
209.065	-10.94
209.443	-11.84
209.821	-14.39
210.199	-15.71
210.577	-15.26
210.954	-12.16
211.332	-11.95
211.71	-13.08
212.088	-10.71
212.465	-11.08
212.843	-9.73
213.221	-8.92
213.598	-8.39
213.976	-6.48
214.353	-5.12
214.731	-6.78
215.108	-5.09
215.485	-4.94
215.863	-3.3
216.24	-4.58
216.617	-5.06
216.994	-5.31
217.371	-4.92
217.749	-6.39
218.126	-6.8
218.503	-7.38
218.88	-6.92
219.256	-6.31
219.633	-5.27
220.01	-5.95
220.387	-5.97
220.764	-5.95
221.14	-4.65
221.517	-4.26
221.894	-4.75
222.27	-4.84
222.647	-4.98
223.023	-5.31
223.4	-5.32
223.776	-4.27
224.153	-3.9
224.529	-3.36
224.905	-2.99
225.282	-3.01
225.658	-2.83
226.034	-2.85
226.41	-2.61
226.786	-2.63
227.162	-1.76
227.538	-1.64
227.914	-1.66
228.29	-1.83
228.666	-1.46
229.042	-1.5
229.418	-1.08
229.793	-1.25
230.169	-1.35
230.545	-1.87
230.92	-2.08
231.296	-1.98
231.672	-1.96
232.047	-1.94
232.422	-1.76
232.798	-1.48
233.173	-1.54
233.549	-1.53
233.924	-1.5
234.299	-1.53
234.674	-1.37
235.05	-1.41
235.425	-1.44
235.8	-1.41
236.175	-1.33
236.55	-1.31
236.925	-1.25
237.3	-1.07
237.675	-0.96
238.049	-1.03
238.424	-0.97
238.799	-0.91
239.174	-0.8
239.548	-0.73
239.923	-0.56
240.297	-0.51
240.672	-0.53
241.046	-0.52
241.421	-0.54
241.795	-0.54
242.17	-0.62
242.544	-0.66
242.918	-0.67
243.293	-0.69
243.667	-0.67
244.041	-0.65
244.415	-0.62
244.789	-0.56
245.163	-0.55
245.537	-0.55
245.911	-0.58
246.285	-0.6
246.659	-0.65
247.033	-0.58
247.406	-0.5
247.78	-0.49
248.154	-0.53
248.528	-0.47
248.901	-0.42
249.275	-0.45
249.648	-0.4
250.022	-0.4
250.395	-0.42
250.769	-0.42
251.142	-0.4
251.515	-0.4
251.888	-0.39
252.262	-0.41
252.635	-0.37
253.008	-0.35
253.381	-0.36
253.754	-0.36
254.127	-0.37
254.5	-0.38
254.873	-0.39
255.246	-0.4
255.619	-0.39
255.992	-0.39
256.364	-0.42
256.737	-0.46
257.11	-0.49
257.483	-0.46
257.855	-0.51
258.228	-0.53
258.6	-0.49
258.973	-0.51
259.345	-0.43
259.718	-0.44
260.09	-0.41
260.462	-0.49
260.834	-0.48
261.207	-0.44
261.579	-0.43
261.951	-0.42
262.323	-0.46
262.695	-0.45
263.067	-0.42
263.439	-0.37
263.811	-0.32
264.183	-0.31
264.555	-0.27
264.927	-0.23
265.298	-0.26
265.67	-0.33
266.042	-0.34
266.413	-0.36
266.785	-0.4
267.156	-0.41
267.528	-0.41
267.899	-0.44
268.271	-0.45
268.642	-0.53
269.013	-0.5
269.385	-0.48
269.756	-0.43
270.127	-0.45
270.498	-0.47
270.87	-0.45
271.241	-0.48
271.612	-0.51
271.983	-0.51
272.354	-0.56
272.724	-0.58
273.095	-0.59
273.466	-0.61
273.837	-0.65
274.208	-0.68
274.578	-0.66
274.949	-0.57
275.32	-0.55
275.69	-0.57
276.061	-0.6
276.431	-0.63
276.802	-0.67
277.172	-0.65
277.542	-0.69
277.913	-0.66
278.283	-0.66
278.653	-0.67
279.023	-0.67
279.394	-0.62
279.764	-0.63
280.134	-0.62
280.504	-0.57
280.874	-0.53
281.244	-0.56
281.614	-0.54
281.983	-0.63
282.353	-0.6
282.723	-0.56
283.093	-0.49
283.462	-0.5
283.832	-0.53
284.202	-0.56
284.571	-0.63
284.941	-0.61
285.31	-0.55
285.68	-0.49
286.049	-0.51
286.418	-0.51
286.788	-0.44
287.157	-0.47
287.526	-0.47
287.895	-0.48
288.264	-0.47
288.633	-0.52
289.002	-0.51
289.371	-0.45
289.74	-0.5
290.109	-0.54
290.478	-0.56
290.847	-0.53
291.216	-0.48
291.585	-0.54
291.953	-0.59
292.322	-0.61
292.691	-0.63
293.059	-0.67
293.428	-0.71
293.796	-0.67
294.165	-0.65
294.533	-0.7
294.901	-0.72
295.27	-0.65
295.638	-0.7
296.006	-0.77
296.374	-0.78
296.743	-0.84
297.111	-0.84
297.479	-0.85
297.847	-0.87
298.215	-0.91
298.583	-1.01
298.95	-1.01
299.318	-0.98
299.686	-0.97
300.054	-0.99
300.422	-0.97
300.789	-0.99
301.157	-0.97
301.525	-1
301.892	-0.96
302.26	-0.9
302.627	-0.84
302.994	-0.83
303.362	-0.81
303.729	-0.74
304.097	-0.75
304.464	-0.76
304.831	-0.7
305.198	-0.71
305.565	-0.68
305.932	-0.65
306.299	-0.65
306.666	-0.67
307.033	-0.64
307.4	-0.62
307.767	-0.62
308.134	-0.62
308.501	-0.61
308.867	-0.6
309.234	-0.59
309.601	-0.6
309.967	-0.61
310.334	-0.59
310.701	-0.59
311.067	-0.61
311.433	-0.58
311.8	-0.64
312.166	-0.6
312.533	-0.66
312.899	-0.66
313.265	-0.63
313.631	-0.62
313.997	-0.61
314.363	-0.64
314.729	-0.66
315.096	-0.64
315.461	-0.68
315.827	-0.61
316.193	-0.6
316.559	-0.56
316.925	-0.55
317.291	-0.53
317.656	-0.53
318.022	-0.54
318.388	-0.49
318.753	-0.49
319.119	-0.47
319.484	-0.47
319.85	-0.51
320.215	-0.49
320.581	-0.48
320.946	-0.46
321.311	-0.49
321.676	-0.48
322.042	-0.5
322.407	-0.55
322.772	-0.58
323.137	-0.59
323.502	-0.49
323.867	-0.45
324.232	-0.48
324.597	-0.43
324.962	-0.48
325.327	-0.49
325.691	-0.49
326.056	-0.46
326.421	-0.48
326.785	-0.5
327.15	-0.5
327.514	-0.6
327.879	-0.61
328.243	-0.59
328.608	-0.57
328.972	-0.54
329.337	-0.58
329.701	-0.61
330.065	-0.59
330.429	-0.57
330.794	-0.55
331.158	-0.53
331.522	-0.5
331.886	-0.47
332.25	-0.52
332.614	-0.57
332.978	-0.64
333.342	-0.58
333.705	-0.6
334.069	-0.63
334.433	-0.65
334.797	-0.65
335.16	-0.71
335.524	-0.68
335.887	-0.66
336.251	-0.66
336.614	-0.61
336.978	-0.61
337.341	-0.63
337.705	-0.67
338.068	-0.61
338.431	-0.61
338.794	-0.66
339.158	-0.66
339.521	-0.69
339.884	-0.74
340.247	-0.8
340.61	-0.79
340.973	-0.8
341.336	-0.79
341.699	-0.85
342.062	-0.79
342.424	-0.84
342.787	-0.85
343.15	-0.82
343.512	-0.78
343.875	-0.81
344.238	-0.76
344.6	-0.85
344.963	-0.91
345.325	-0.93
345.688	-0.97
346.05	-0.97
346.412	-0.96
346.775	-0.95
347.137	-1.05
347.499	-1.06
347.861	-1.03
348.223	-1.05
348.585	-1.08
348.947	-1.04
349.309	-1.05
349.671	-1.05
350.033	-1.13
350.395	-1.1
350.757	-1.12
351.118	-1.16
351.48	-1.23
351.842	-1.24
352.203	-1.22
352.565	-1.29
352.927	-1.24
353.288	-1.28
353.65	-1.28
354.011	-1.23
354.372	-1.19
354.734	-1.16
355.095	-1.17
355.456	-1.19
355.817	-1.17
356.179	-1.16
356.54	-1.11
356.901	-1.11
357.262	-1.09
357.623	-1.08
357.984	-1.01
358.345	-0.95
358.705	-0.98
359.066	-0.94
359.427	-0.95
359.788	-0.92
360.148	-0.92
360.509	-0.81
360.87	-0.78
361.23	-0.85
361.591	-0.79
361.951	-0.87
362.312	-0.88
362.672	-0.85
363.032	-0.87
363.393	-0.9
363.753	-0.99
364.113	-0.98
364.473	-0.94
364.833	-0.91
365.193	-0.88
365.553	-0.86
365.913	-0.93
366.273	-0.95
366.633	-0.93
366.993	-1.08
367.353	-1.18
367.713	-1.17
368.072	-1.22
368.432	-1.2
368.792	-1.23
369.151	-1.23
369.511	-1.29
369.87	-1.34
370.23	-1.3
370.589	-1.3
370.949	-1.31
371.308	-1.36
371.667	-1.33
372.027	-1.36
372.386	-1.34
372.745	-1.28
373.104	-1.32
373.463	-1.35
373.822	-1.36
374.181	-1.43
374.54	-1.42
374.899	-1.31
375.258	-1.32
375.617	-1.32
375.975	-1.24
376.334	-1.17
376.693	-1.1
377.052	-0.99
377.41	-1.04
377.769	-1.01
378.127	-0.93
378.486	-0.95
378.844	-0.92
379.202	-0.92
379.561	-0.91
379.919	-0.89
380.277	-0.82
380.636	-0.86
380.994	-0.87
381.352	-0.92
381.71	-0.94
382.068	-0.87
382.426	-0.92
382.784	-0.91
383.142	-0.88
383.5	-0.93
383.857	-0.97
384.215	-0.95
384.573	-0.99
384.931	-0.96
385.288	-1.02
385.646	-1.09
386.003	-1.17
386.361	-1.13
386.718	-1.17
387.076	-1.25
387.433	-1.22
387.791	-1.25
388.148	-1.25
388.505	-1.3
388.862	-1.27
389.22	-1.27
389.577	-1.22
389.934	-1.16
390.291	-1.11
390.648	-1.05
391.005	-1.12
391.362	-1.12
391.718	-1.16
392.075	-1.23
392.432	-1.14
392.789	-1.13
393.145	-1.19
393.502	-1.18
393.859	-1.21
394.215	-1.16
394.572	-1.2
394.928	-1.21
395.285	-1.2
395.641	-1.15
395.997	-1.11
396.354	-1.11
396.71	-1.07
397.066	-1.05
397.422	-0.96
397.778	-0.98
398.134	-0.94
398.491	-1
398.846	-1.05
399.202	-0.99
399.558	-1.1
399.914	-1.01
400.27	-0.97
400.626	-1
400.981	-0.99
401.337	-1.01
401.693	-1
402.048	-0.99
402.404	-0.94
402.759	-0.93
403.115	-0.89
403.47	-0.84
403.826	-0.78
404.181	-0.85
404.536	-0.87
404.892	-0.91
405.247	-0.91
405.602	-0.96
405.957	-0.9
406.312	-0.89
406.667	-0.85
407.022	-0.85
407.377	-0.72
407.732	-0.69
408.087	-0.71
408.442	-0.63
408.796	-0.67
409.151	-0.6
409.506	-0.56
409.86	-0.48
410.215	-0.5
410.57	-0.53
410.924	-0.45
411.279	-0.38
411.633	-0.43
411.987	-0.42
412.342	-0.36
412.696	-0.34
413.05	-0.24
413.404	-0.19
413.758	-0.11
414.113	-0.02
414.467	0.06
414.821	0.02
415.175	0.01
415.529	-0.02
415.882	0.02
416.236	0.04
416.59	0.11
416.944	0.16
417.298	0.33
417.651	0.43
418.005	0.51
418.358	0.61
418.712	0.69
419.065	0.72
419.419	0.83
419.772	0.87
420.126	0.97
420.479	1.14
420.832	1.14
421.185	1.25
421.539	1.31
421.892	1.36
422.245	1.49
422.598	1.58
422.951	1.67
423.304	1.71
423.657	1.83
424.01	1.91
424.363	2.04
424.715	2.14
425.068	2.18
425.421	2.27
425.773	2.33
426.126	2.48
426.479	2.56
426.831	2.58
427.184	2.6
427.536	2.66
427.889	2.76
428.241	2.85
428.593	2.88
428.945	2.93
429.298	3
429.65	3.15
430.002	3.16
430.354	3.3
430.706	3.36
431.058	3.35
431.41	3.35
431.762	3.3
432.114	3.4
432.466	3.46
432.817	3.58
433.169	3.65
433.521	3.65
433.872	3.75
434.224	3.77
434.576	3.78
434.927	3.61
435.279	3.57
435.63	3.63
435.981	3.7
436.333	3.71
436.684	3.82
437.035	3.8
437.387	3.82
437.738	3.74
438.089	3.71
438.44	3.69
438.791	3.63
439.142	3.57
439.493	3.56
439.844	3.59
440.195	3.65
440.545	3.72
440.896	3.75
441.247	3.71
441.598	3.63
441.948	3.55
442.299	3.53
442.649	3.43
443	3.4
443.35	3.34
443.701	3.4
444.051	3.4
444.401	3.36
444.752	3.34
445.102	3.34
445.452	3.24
445.802	3.16
446.152	3.16
446.502	3.19
446.852	3.14
447.202	3.16
447.552	3.17
447.902	3.12
448.252	3.09
448.602	3.53
448.952	3.52
449.301	3.53
449.651	3.56
450.001	3.57
450.35	3.51
450.7	3.63
451.049	3.71
451.399	3.91
451.748	3.97
452.097	4.26
452.447	4.13
452.796	4.25
453.145	4.34
453.494	4.41
453.843	4.48
454.193	4.57
454.542	4.71
454.891	4.84
455.239	4.88
455.588	5.03
455.937	5.05
456.286	5.24
456.635	5.37
456.984	5.53
457.332	5.11
457.681	5.18
458.03	5.31
458.378	5.31
458.727	5.41
459.075	5.59
459.423	5.7
459.772	5.79
460.12	5.72
460.468	5.87
460.817	5.81
461.165	5.94
461.513	5.98
461.861	6.07
462.209	6.17
462.557	6.28
462.905	6.33
463.253	6.41
463.601	6.54
463.949	6.63
464.297	6.65
464.644	6.75
464.992	6.69
465.34	6.75
465.687	6.85
466.035	6.82
466.383	6.84
466.73	6.77
467.078	6.7
467.425	6.71
467.772	6.79
468.12	6.67
468.467	6.58
468.814	6.7
469.161	6.63
469.508	6.65
469.856	6.64
470.203	6.57
470.55	6.4
470.897	6.39
471.243	6.25
471.59	6.24
471.937	6.16
472.284	6
472.631	5.88
472.977	5.8
473.324	5.79
473.671	5.67
474.017	5.61
474.364	5.41
474.71	5.46
475.057	5.37
475.403	5.37
475.749	5.39
476.096	5.31
476.442	5.2
476.788	5.23
477.134	5.29
477.48	5.2
477.826	5.16
478.172	5.04
478.518	5.07
478.864	5.07
479.21	5.22
479.556	5.12
479.902	5.24
480.248	5.32
480.593	5.36
480.939	5.38
481.285	5.43
481.63	5.48
481.976	5.55
482.321	5.63
482.667	5.74
483.012	5.89
483.357	6.01
483.703	6.16
484.048	6.34
484.393	6.55
484.738	6.71
485.084	6.83
485.429	6.98
485.774	7.14
486.119	7.36
486.464	7.63
486.808	7.9
487.153	8.15
487.498	8.52
487.843	8.75
488.188	9.11
488.532	9.42
488.877	9.75
489.222	10.14
489.566	10.64
489.911	11.18
490.255	11.72
490.6	12.16
490.944	12.69
491.288	13.13
491.633	13.66
491.977	14.19
492.321	14.78
492.665	15.29
493.009	15.83
493.353	16.49
493.697	17.14
494.041	17.79
494.385	18.47
494.729	19.04
495.073	19.72
495.417	20.45
495.76	21.27
496.104	21.99
496.448	22.72
496.791	23.49
497.135	24.33
497.479	25.15
497.822	26.03
498.165	26.88
498.509	27.71
498.852	28.51
499.196	29.39
499.539	30.28
499.882	31.2
500.225	32.07
500.568	32.87
500.911	33.65
501.254	34.59
501.597	35.46
501.94	36.3
502.283	37.12
502.626	37.95
502.969	38.76
503.312	39.59
503.654	40.39
503.997	41.15
504.34	41.83
504.682	42.62
505.025	43.43
505.367	44.3
505.71	44.94
506.052	45.62
506.395	46.38
506.737	47.14
507.079	47.96
507.421	48.83
507.764	49.54
508.106	50.23
508.448	51.02
508.79	51.62
509.132	52.34
509.474	52.99
509.816	53.48
510.158	54.17
510.499	54.77
510.841	55.37
511.183	56
511.525	56.6
511.866	57.27
512.208	57.79
512.549	58.43
512.891	59.09
513.232	59.71
513.574	60.35
513.915	60.8
514.256	61.39
514.598	61.99
514.939	62.46
515.28	62.81
515.621	63.22
515.962	63.5
516.303	64.12
516.644	64.57
516.985	64.85
517.326	65.39
517.667	65.86
518.008	66.34
518.349	66.83
518.69	67.21
519.03	67.65
519.371	68.09
519.712	68.39
520.052	68.63
520.393	68.86
520.733	69.26
521.074	69.59
521.414	69.94
521.754	70.15
522.095	70.36
522.435	70.89
522.775	71.21
523.115	71.4
523.455	71.53
523.795	71.95
524.135	72.19
524.475	72.45
524.815	72.51
525.155	72.88
525.495	73.14
525.835	73.34
526.175	73.42
526.514	73.56
526.854	73.65
527.194	73.71
527.533	73.77
527.873	73.96
528.212	74.37
528.552	74.73
528.891	74.96
529.23	75.07
529.57	75.16
529.909	75.3
530.248	75.2
530.587	75.31
530.927	75.11
531.266	75.17
531.605	75.28
531.944	75.45
532.283	75.47
532.621	75.51
532.96	75.89
533.299	76.04
533.638	75.97
533.977	75.98
534.315	76.06
534.654	76.23
534.992	76.39
535.331	76.48
535.67	76.82
536.008	77.06
536.346	77.22
536.685	77.08
537.023	76.96
537.361	77.09
537.7	77.24
538.038	77.23
538.376	77.2
538.714	77.49
539.052	77.6
539.39	77.63
539.728	77.64
540.066	77.67
540.404	77.79
540.741	77.85
541.079	77.9
541.417	77.81
541.755	77.9
542.092	77.93
542.43	78
542.767	77.99
543.105	77.78
543.442	77.83
543.78	78.01
544.117	77.72
544.454	77.88
544.792	77.74
545.129	77.92
545.466	78.06
545.803	78.08
546.14	78.04
546.477	78.06
546.814	78.19
547.151	78.14
547.488	78.11
547.825	78.17
548.162	78.22
548.499	78.35
548.835	78.43
549.172	78.49
549.509	78.5
549.845	78.53
550.182	78.4
550.518	78.46
550.855	78.56
551.191	78.66
551.528	78.93
551.864	78.86
552.2	78.79
552.537	79.04
552.873	78.88
553.209	79.2
553.545	78.95
553.881	78.88
554.217	78.85
554.553	79.14
554.889	79.28
555.225	79.21
555.561	79.17
555.896	79.27
556.232	79.33
556.568	79.46
556.903	79.47
557.239	79.48
557.575	79.52
557.91	79.65
558.245	79.51
558.581	79.59
558.916	79.7
559.252	79.75
559.587	79.71
559.922	79.64
560.257	79.77
560.592	79.96
560.928	79.83
561.263	79.96
561.598	79.82
561.933	80.09
562.267	80.15
562.602	80.27
562.937	80.17
563.272	80.26
563.607	80.31
563.941	80.47
564.276	80.65
564.611	80.88
564.945	81.01
565.28	81.18
565.614	80.96
565.949	81.01
566.283	80.88
566.617	81.07
566.951	81.3
567.286	81.29
567.62	81.25
567.954	81.35
568.288	81.57
568.622	81.46
568.956	81.33
569.29	81.48
569.624	81.37
569.958	81.35
570.292	81.26
570.626	81.45
570.959	81.57
571.293	81.58
571.627	81.7
571.96	81.74
572.294	81.86
572.627	81.77
572.961	81.81
573.294	81.73
573.627	81.69
573.961	81.85
574.294	81.83
574.627	82.07
574.961	82.03
575.294	81.95
575.627	82.19
575.96	82.16
576.293	82.02
576.626	81.97
576.959	82.09
577.292	82.2
577.624	82.17
577.957	82.26
578.29	82.32
578.623	82.43
578.955	82.33
579.288	82.24
579.62	82.2
579.953	82.07
580.285	82.03
580.618	82.04
580.95	82.11
581.282	82.09
581.615	82.21
581.947	82.14
582.279	82.27
582.611	82.26
582.943	82.09
583.275	82.09
583.607	82.19
583.939	81.99
584.271	81.96
584.603	82.11
584.935	82.24
585.267	82.37
585.598	82.36
585.93	82.44
586.262	82.47
586.593	82.43
586.925	82.27
587.256	82.36
587.588	82.25
587.919	82.36
588.25	82.49
588.582	82.69
588.913	82.77
589.244	82.83
589.575	82.74
589.907	82.73
590.238	82.76
590.569	82.67
590.9	82.74
591.231	82.83
591.562	82.93
591.892	82.92
592.223	82.91
592.554	82.95
592.885	83.02
593.215	82.8
593.546	82.61
593.877	82.48
594.207	82.34
594.538	82.19
594.868	82.15
595.198	82.26
595.529	82.19
595.859	82.16
596.189	82.26
596.52	82.36
596.85	82.28
597.18	82.15
597.51	82.12
597.84	82.17
598.17	82.21
598.5	82.32
598.83	82.39
599.16	82.47
599.489	82.44
599.819	82.35
600.149	82.05
600.479	81.93
600.808	81.94
601.138	81.74
601.467	81.59
601.797	81.62
602.126	81.63
602.456	81.78
602.785	81.95
603.114	81.89
603.443	81.91
603.773	81.84
604.102	81.98
604.431	81.74
604.76	81.49
605.089	81.43
605.418	81.36
605.747	81.23
606.076	81.17
606.405	80.9
606.733	80.71
607.062	80.64
607.391	80.52
607.72	80.26
608.048	80.17
608.377	80.25
608.705	80.27
609.034	80.19
609.362	80.33
609.69	80.64
610.019	80.54
610.347	80.57
610.675	80.53
611.004	80.57
611.332	80.63
611.66	80.64
611.988	80.58
612.316	80.69
612.644	80.64
612.972	80.69
613.3	80.5
613.627	80.34
613.955	80.43
614.283	80.05
614.611	80.06
614.938	80.21
615.266	80.02
615.593	79.96
615.921	80.09
616.248	80.28
616.576	80.41
616.903	80.55
617.23	80.51
617.558	80.54
617.885	80.3
618.212	80.15
618.539	80.01
618.866	79.54
619.193	79.17
619.52	79.25
619.847	79.05
620.174	79.24
620.501	78.92
620.828	78.94
621.155	78.9
621.481	78.65
621.808	78.73
622.135	78.62
622.461	78.99
622.788	79.01
623.114	78.78
623.441	78.37
623.767	78.37
624.093	78.59
624.42	78.07
624.746	78.17
625.072	78.11
625.398	78.34
625.725	77.99
626.051	78.01
626.377	78.33
626.703	78.31
627.029	78.73
627.354	78.59
627.68	78.03
628.006	78.16
628.332	77.82
628.658	77.87
628.983	77.93
629.309	77.9
629.634	78.27
629.96	78.01
630.285	77.89
630.611	77.7
630.936	77.87
631.262	78.88
631.587	79.29
631.912	79.42
632.237	79.31
632.562	80.37
632.887	80.02
633.213	79.86
633.538	80.22
633.863	80.27
634.187	79.99
634.512	79.58
634.837	79.66
635.162	79.06
635.487	78.83
635.811	79.36
636.136	79.62
636.461	79.5
636.785	79.23
637.11	79.2
637.434	79.15
637.758	79.34
638.083	79.53
638.407	79.22
638.731	79.44
639.056	79.34
639.38	78.36
639.704	79.13
640.028	78.77
640.352	78.99
640.676	78.57
641	78.18
641.324	78.16
641.648	77.44
641.972	77.82
642.295	77.5
642.619	77.27
642.943	76.79
643.266	76.67
643.59	76.94
643.913	76.62
644.237	76.38
644.56	76.65
644.884	77.2
645.207	77.39
645.53	77.26
645.854	77.19
646.177	77.16
646.5	77.66
646.823	77.7
647.146	77.9
647.469	77.9
647.792	77.2
648.115	77.18
648.438	77.22
648.761	79.65
649.084	80.74
649.406	81.04
649.729	80.56
650.052	80.42
650.374	80.65
650.697	80.71
