Data from T2_Reflection__99__19-58-34-149.txt Node

Date: Fri Jun 04 19:58:34 CEST 2021
User: mabdelazizm
Spectrometer: FLMS18565
Trigger mode: 0
Integration Time (sec): 2.000000E0
Scans to average: 1
Electric dark correction enabled: true
Nonlinearity correction enabled: false
Boxcar width: 12
XAxis mode: Wavelengths
Number of Pixels in Spectrum: 2048
>>>>>Begin Spectral Data<<<<<
179.071	-181.3
179.452	-117.82
179.833	-325.81
180.214	-390.38
180.595	-354.19
180.977	-531.56
181.358	-388.48
181.739	-313.97
182.12	-219.93
182.501	-313.75
182.882	-391.37
183.262	-1514.29
183.643	-302.5
184.024	-203.38
184.405	-106.23
184.786	-80.34
185.166	-75.43
185.547	-55.56
185.927	-17.02
186.308	-17.96
186.689	-2.08
187.069	2.48
187.449	-8.12
187.83	-10.41
188.21	-12.84
188.59	-0.96
188.971	-1.24
189.351	4.71
189.731	8.53
190.111	3.56
190.491	-3.26
190.871	-9.45
191.251	-8.81
191.631	-5.58
192.011	-1.69
192.391	0.88
192.771	4.59
193.151	3.73
193.531	3.86
193.91	7.38
194.29	8.55
194.67	9.71
195.049	6.87
195.429	1.76
195.808	1.4
196.188	-1.12
196.567	-4.46
196.946	-1.58
197.326	-1.45
197.705	0.18
198.084	-2.39
198.464	-4.61
198.843	-2.5
199.222	-0.72
199.601	0.78
199.98	3.03
200.359	6.57
200.738	6.17
201.117	1.18
201.496	-2.17
201.875	-1.84
202.254	-2.01
202.632	-2.06
203.011	0.37
203.39	-2.44
203.768	-2.31
204.147	-1.13
204.525	-0.39
204.904	-1.31
205.282	-0.44
205.661	-2.38
206.039	-0.08
206.418	0.81
206.796	3.63
207.174	1.06
207.552	1.89
207.931	2
208.309	0.03
208.687	-1.93
209.065	-1
209.443	-3.94
209.821	-6.47
210.199	-6.74
210.577	-4.26
210.954	-0.34
211.332	-1.58
211.71	-1.34
212.088	-0.9
212.465	-2.56
212.843	-2.67
213.221	-1.51
213.598	-0.41
213.976	-0.78
214.353	-1.51
214.731	-2.64
215.108	-1.94
215.485	-1.96
215.863	-3.91
216.24	-6.11
216.617	-6.23
216.994	-6.72
217.371	-5.69
217.749	-6.48
218.126	-5.43
218.503	-4.73
218.88	-4.09
219.256	-4.51
219.633	-2.74
220.01	-2.51
220.387	-2.22
220.764	-1.11
221.14	-0.44
221.517	-1.3
221.894	-1.29
222.27	-1.01
222.647	-1.5
223.023	-1.85
223.4	-1.92
223.776	-1.44
224.153	-1.63
224.529	-1
224.905	0.13
225.282	0.29
225.658	0.43
226.034	0.75
226.41	0.85
226.786	0.66
227.162	1.16
227.538	0.72
227.914	0.67
228.29	0.76
228.666	0.98
229.042	0.64
229.418	0.96
229.793	0.66
230.169	0.38
230.545	-0.08
230.92	0.12
231.296	0.23
231.672	0.13
232.047	0.01
232.422	-0.17
232.798	-0.07
233.173	-0.11
233.549	0.11
233.924	0.12
234.299	-0.03
234.674	0.03
235.05	-0.02
235.425	0.07
235.8	0.18
236.175	0.27
236.55	0.25
236.925	0.26
237.3	0.27
237.675	0.34
238.049	0.26
238.424	0.24
238.799	0.19
239.174	0.26
239.548	0.35
239.923	0.47
240.297	0.43
240.672	0.39
241.046	0.44
241.421	0.52
241.795	0.57
242.17	0.61
242.544	0.69
242.918	0.63
243.293	0.58
243.667	0.51
244.041	0.56
244.415	0.56
244.789	0.55
245.163	0.5
245.537	0.49
245.911	0.54
246.285	0.57
246.659	0.61
247.033	0.63
247.406	0.72
247.78	0.74
248.154	0.67
248.528	0.69
248.901	0.7
249.275	0.72
249.648	0.82
250.022	0.79
250.395	0.77
250.769	0.77
251.142	0.81
251.515	0.81
251.888	0.81
252.262	0.84
252.635	0.86
253.008	0.87
253.381	0.85
253.754	0.85
254.127	0.87
254.5	0.86
254.873	0.87
255.246	0.83
255.619	0.85
255.992	0.85
256.364	0.81
256.737	0.77
257.11	0.77
257.483	0.86
257.855	0.9
258.228	0.9
258.6	0.87
258.973	0.87
259.345	0.94
259.718	0.93
260.09	0.97
260.462	0.89
260.834	0.81
261.207	0.82
261.579	0.8
261.951	0.76
262.323	0.77
262.695	0.78
263.067	0.85
263.439	0.83
263.811	0.87
264.183	0.86
264.555	0.94
264.927	0.94
265.298	0.93
265.67	0.89
266.042	0.89
266.413	0.89
266.785	0.85
267.156	0.78
267.528	0.79
267.899	0.81
268.271	0.77
268.642	0.67
269.013	0.67
269.385	0.63
269.756	0.68
270.127	0.71
270.498	0.68
270.87	0.7
271.241	0.76
271.612	0.72
271.983	0.71
272.354	0.61
272.724	0.6
273.095	0.59
273.466	0.57
273.837	0.52
274.208	0.52
274.578	0.46
274.949	0.52
275.32	0.52
275.69	0.47
276.061	0.45
276.431	0.41
276.802	0.38
277.172	0.36
277.542	0.35
277.913	0.42
278.283	0.45
278.653	0.43
279.023	0.41
279.394	0.45
279.764	0.47
280.134	0.48
280.504	0.44
280.874	0.46
281.244	0.4
281.614	0.43
281.983	0.41
282.353	0.44
282.723	0.46
283.093	0.45
283.462	0.44
283.832	0.44
284.202	0.41
284.571	0.36
284.941	0.35
285.31	0.41
285.68	0.46
286.049	0.44
286.418	0.45
286.788	0.51
287.157	0.49
287.526	0.49
287.895	0.5
288.264	0.52
288.633	0.45
289.002	0.41
289.371	0.47
289.74	0.43
290.109	0.39
290.478	0.37
290.847	0.39
291.216	0.37
291.585	0.29
291.953	0.26
292.322	0.29
292.691	0.25
293.059	0.23
293.428	0.2
293.796	0.25
294.165	0.27
294.533	0.2
294.901	0.2
295.27	0.26
295.638	0.22
296.006	0.16
296.374	0.14
296.743	0.14
297.111	0.13
297.479	0.13
297.847	0.19
298.215	0.17
298.583	0.12
298.95	0.16
299.318	0.19
299.686	0.18
300.054	0.15
300.422	0.23
300.789	0.28
301.157	0.32
301.525	0.29
301.892	0.33
302.26	0.35
302.627	0.42
302.994	0.4
303.362	0.44
303.729	0.46
304.097	0.43
304.464	0.39
304.831	0.4
305.198	0.4
305.565	0.4
305.932	0.36
306.299	0.33
306.666	0.31
307.033	0.28
307.4	0.32
307.767	0.23
308.134	0.19
308.501	0.2
308.867	0.22
309.234	0.26
309.601	0.23
309.967	0.18
310.334	0.16
310.701	0.13
311.067	0.09
311.433	0.11
311.8	0.05
312.166	0.11
312.533	0.05
312.899	0.07
313.265	0.12
313.631	0.13
313.997	0.15
314.363	0.13
314.729	0.11
315.096	0.09
315.461	0.08
315.827	0.09
316.193	0.1
316.559	0.14
316.925	0.18
317.291	0.16
317.656	0.17
318.022	0.12
318.388	0.12
318.753	0.05
319.119	0.05
319.484	0.08
319.85	0.08
320.215	0.1
320.581	0.08
320.946	0.1
321.311	0.05
321.676	0.08
322.042	0.09
322.407	0.01
322.772	0.02
323.137	-0.01
323.502	0.05
323.867	0.06
324.232	0.03
324.597	0.05
324.962	0.07
325.327	0.08
325.691	0.01
326.056	0.02
326.421	0.04
326.785	0.05
327.15	0.1
327.514	0.1
327.879	0.18
328.243	0.21
328.608	0.19
328.972	0.21
329.337	0.19
329.701	0.22
330.065	0.25
330.429	0.24
330.794	0.22
331.158	0.22
331.522	0.19
331.886	0.14
332.25	0.12
332.614	0.09
332.978	0.04
333.342	0.08
333.705	0.05
334.069	-0.02
334.433	-0.07
334.797	-0.04
335.16	-0.02
335.524	0.05
335.887	0.04
336.251	0.06
336.614	0.06
336.978	0.05
337.341	0.02
337.705	-0.05
338.068	-0.02
338.431	-0.02
338.794	-0.07
339.158	-0.07
339.521	-0.08
339.884	-0.13
340.247	-0.18
340.61	-0.08
340.973	-0.05
341.336	-0.09
341.699	-0.1
342.062	-0.09
342.424	-0.11
342.787	-0.04
343.15	-0.01
343.512	0.05
343.875	-0.03
344.238	-0.01
344.6	-0.11
344.963	-0.15
345.325	-0.21
345.688	-0.28
346.05	-0.36
346.412	-0.34
346.775	-0.27
347.137	-0.29
347.499	-0.27
347.861	-0.25
348.223	-0.33
348.585	-0.34
348.947	-0.34
349.309	-0.32
349.671	-0.35
350.033	-0.41
350.395	-0.36
350.757	-0.41
351.118	-0.45
351.48	-0.44
351.842	-0.48
352.203	-0.49
352.565	-0.6
352.927	-0.51
353.288	-0.5
353.65	-0.49
354.011	-0.49
354.372	-0.42
354.734	-0.39
355.095	-0.38
355.456	-0.4
355.817	-0.47
356.179	-0.51
356.54	-0.53
356.901	-0.56
357.262	-0.52
357.623	-0.49
357.984	-0.38
358.345	-0.37
358.705	-0.43
359.066	-0.44
359.427	-0.43
359.788	-0.39
360.148	-0.34
360.509	-0.3
360.87	-0.27
361.23	-0.28
361.591	-0.15
361.951	-0.22
362.312	-0.26
362.672	-0.23
363.032	-0.23
363.393	-0.25
363.753	-0.27
364.113	-0.26
364.473	-0.27
364.833	-0.28
365.193	-0.28
365.553	-0.26
365.913	-0.26
366.273	-0.29
366.633	-0.33
366.993	-0.44
367.353	-0.43
367.713	-0.43
368.072	-0.39
368.432	-0.39
368.792	-0.41
369.151	-0.46
369.511	-0.4
369.87	-0.41
370.23	-0.37
370.589	-0.38
370.949	-0.41
371.308	-0.44
371.667	-0.43
372.027	-0.41
372.386	-0.41
372.745	-0.4
373.104	-0.37
373.463	-0.29
373.822	-0.28
374.181	-0.25
374.54	-0.24
374.899	-0.18
375.258	-0.19
375.617	-0.19
375.975	-0.14
376.334	-0.16
376.693	-0.09
377.052	-0.02
377.41	-0.02
377.769	0.01
378.127	0.09
378.486	0.01
378.844	-0.02
379.202	-0.08
379.561	-0.15
379.919	-0.12
380.277	-0.1
380.636	-0.16
380.994	-0.21
381.352	-0.23
381.71	-0.26
382.068	-0.31
382.426	-0.35
382.784	-0.37
383.142	-0.37
383.5	-0.31
383.857	-0.32
384.215	-0.32
384.573	-0.33
384.931	-0.32
385.288	-0.37
385.646	-0.48
386.003	-0.53
386.361	-0.56
386.718	-0.58
387.076	-0.62
387.433	-0.67
387.791	-0.68
388.148	-0.66
388.505	-0.69
388.862	-0.64
389.22	-0.66
389.577	-0.57
389.934	-0.56
390.291	-0.55
390.648	-0.57
391.005	-0.51
391.362	-0.59
391.718	-0.51
392.075	-0.59
392.432	-0.63
392.789	-0.67
393.145	-0.64
393.502	-0.62
393.859	-0.62
394.215	-0.56
394.572	-0.54
394.928	-0.61
395.285	-0.6
395.641	-0.61
395.997	-0.62
396.354	-0.59
396.71	-0.53
397.066	-0.59
397.422	-0.52
397.778	-0.6
398.134	-0.56
398.491	-0.68
398.846	-0.69
399.202	-0.69
399.558	-0.68
399.914	-0.68
400.27	-0.65
400.626	-0.76
400.981	-0.73
401.337	-0.71
401.693	-0.68
402.048	-0.73
402.404	-0.73
402.759	-0.75
403.115	-0.75
403.47	-0.68
403.826	-0.62
404.181	-0.68
404.536	-0.69
404.892	-0.71
405.247	-0.68
405.602	-0.73
405.957	-0.65
406.312	-0.67
406.667	-0.61
407.022	-0.63
407.377	-0.54
407.732	-0.54
408.087	-0.53
408.442	-0.49
408.796	-0.54
409.151	-0.53
409.506	-0.38
409.86	-0.35
410.215	-0.43
410.57	-0.5
410.924	-0.42
411.279	-0.44
411.633	-0.48
411.987	-0.52
412.342	-0.5
412.696	-0.53
413.05	-0.48
413.404	-0.39
413.758	-0.28
414.113	-0.23
414.467	-0.22
414.821	-0.28
415.175	-0.29
415.529	-0.34
415.882	-0.31
416.236	-0.35
416.59	-0.31
416.944	-0.3
417.298	-0.18
417.651	-0.13
418.005	-0.04
418.358	-0.08
418.712	-0.03
419.065	-0.04
419.419	-0.03
419.772	-0.13
420.126	-0.06
420.479	0.06
420.832	-0.01
421.185	0.06
421.539	0.03
421.892	0.05
422.245	0
422.598	-0.03
422.951	-0.01
423.304	-0.05
423.657	-0.01
424.01	0.02
424.363	0.02
424.715	-0.03
425.068	-0
425.421	0.07
425.773	0.05
426.126	0.06
426.479	0.02
426.831	-0.05
427.184	-0.1
427.536	-0.15
427.889	-0.1
428.241	-0.07
428.593	-0.04
428.945	-0.04
429.298	-0.14
429.65	-0.04
430.002	-0.14
430.354	0.02
430.706	0.02
431.058	0.01
431.41	-0.01
431.762	-0.07
432.114	-0.05
432.466	-0.09
432.817	-0.14
433.169	0
433.521	0.02
433.872	0.01
434.224	-0.12
434.576	-0.08
434.927	-0.2
435.279	-0.26
435.63	-0.26
435.981	-0.2
436.333	-0.13
436.684	-0.12
437.035	-0.09
437.387	-0.09
437.738	-0.11
438.089	-0.13
438.44	-0.19
438.791	-0.26
439.142	-0.41
439.493	-0.32
439.844	-0.24
440.195	-0.25
440.545	-0.26
440.896	-0.22
441.247	-0.2
441.598	-0.11
441.948	-0.22
442.299	-0.13
442.649	-0.05
443	0
443.35	-0.06
443.701	-0.06
444.051	0.01
444.401	0.04
444.752	-0.04
445.102	-0.11
445.452	-0.17
445.802	-0.27
446.152	-0.26
446.502	-0.29
446.852	-0.34
447.202	-0.3
447.552	-0.24
447.902	-0.18
448.252	-0.34
448.602	-0.91
448.952	-0.93
449.301	-0.91
449.651	-0.88
450.001	-0.92
450.35	-0.97
450.7	-0.99
451.049	-1.02
451.399	-1.01
451.748	-1.12
452.097	-0.93
452.447	-1
452.796	-0.88
453.145	-0.85
453.494	-0.89
453.843	-0.88
454.193	-0.85
454.542	-0.79
454.891	-0.68
455.239	-0.68
455.588	-0.55
455.937	-0.56
456.286	-0.6
456.635	-0.67
456.984	-0.65
457.332	-0.16
457.681	-0.16
458.03	-0.15
458.378	-0.25
458.727	-0.21
459.075	-0.23
459.423	-0.09
459.772	-0.19
460.12	-0.34
460.468	-0.19
460.817	-0.26
461.165	-0.15
461.513	-0.29
461.861	-0.3
462.209	-0.19
462.557	-0.08
462.905	-0.12
463.253	-0.1
463.601	-0.03
463.949	0.06
464.297	-0.02
464.644	0.08
464.992	0.12
465.34	0.19
465.687	0.31
466.035	0.31
466.383	0.4
466.73	0.32
467.078	0.37
467.425	0.43
467.772	0.55
468.12	0.45
468.467	0.46
468.814	0.58
469.161	0.58
469.508	0.6
469.856	0.58
470.203	0.63
470.55	0.62
470.897	0.68
471.243	0.6
471.59	0.71
471.937	0.78
472.284	0.7
472.631	0.61
472.977	0.69
473.324	0.68
473.671	0.63
474.017	0.63
474.364	0.51
474.71	0.64
475.057	0.61
475.403	0.67
475.749	0.69
476.096	0.66
476.442	0.64
476.788	0.65
477.134	0.74
477.48	0.72
477.826	0.69
478.172	0.58
478.518	0.6
478.864	0.62
479.21	0.68
479.556	0.58
479.902	0.63
480.248	0.62
480.593	0.55
480.939	0.45
481.285	0.52
481.63	0.49
481.976	0.5
482.321	0.54
482.667	0.62
483.012	0.68
483.357	0.73
483.703	0.8
484.048	0.89
484.393	0.97
484.738	1.05
485.084	1
485.429	1.02
485.774	1
486.119	1.03
486.464	1.12
486.808	1.21
487.153	1.25
487.498	1.28
487.843	1.22
488.188	1.36
488.532	1.46
488.877	1.54
489.222	1.7
489.566	1.95
489.911	2.19
490.255	2.39
490.6	2.58
490.944	2.81
491.288	3.01
491.633	3.27
491.977	3.44
492.321	3.74
492.665	3.95
493.009	4.22
493.353	4.55
493.697	4.92
494.041	5.33
494.385	5.75
494.729	6.13
495.073	6.51
495.417	6.96
495.76	7.42
496.104	7.89
496.448	8.44
496.791	8.98
497.135	9.5
497.479	10.06
497.822	10.65
498.165	11.25
498.509	11.79
498.852	12.46
499.196	13.03
499.539	13.65
499.882	14.27
500.225	14.96
500.568	15.62
500.911	16.13
501.254	16.86
501.597	17.53
501.94	18.22
502.283	18.92
502.626	19.59
502.969	20.22
503.312	20.89
503.654	21.56
503.997	22.21
504.34	22.83
504.682	23.55
505.025	24.25
505.367	24.96
505.71	25.47
506.052	26.16
506.395	26.85
506.737	27.49
507.079	28.11
507.421	28.77
507.764	29.44
508.106	30.08
508.448	30.73
508.79	31.35
509.132	31.98
509.474	32.6
509.816	33.09
510.158	33.71
510.499	34.18
510.841	34.71
511.183	35.28
511.525	35.87
511.866	36.47
512.208	37.02
512.549	37.55
512.891	38.17
513.232	38.81
513.574	39.4
513.915	39.81
514.256	40.51
514.598	41.22
514.939	41.72
515.28	42.2
515.621	42.66
515.962	43.1
516.303	43.63
516.644	44.04
516.985	44.51
517.326	44.98
517.667	45.41
518.008	45.91
518.349	46.42
518.69	46.89
519.03	47.45
519.371	47.93
519.712	48.23
520.052	48.61
520.393	48.81
520.733	49.2
521.074	49.55
521.414	49.94
521.754	50.14
522.095	50.48
522.435	50.86
522.775	51.22
523.115	51.45
523.455	51.63
523.795	51.92
524.135	52.33
524.475	52.49
524.815	52.76
525.155	53.23
525.495	53.48
525.835	53.64
526.175	53.85
526.514	54
526.854	54.18
527.194	54.39
527.533	54.49
527.873	54.6
528.212	54.92
528.552	55.2
528.891	55.6
529.23	55.88
529.57	56.22
529.909	56.45
530.248	56.56
530.587	56.8
530.927	57.05
531.266	57.01
531.605	57.14
531.944	57.32
532.283	57.54
532.621	57.6
532.96	57.98
533.299	58.11
533.638	58.2
533.977	58.44
534.315	58.55
534.654	58.71
534.992	58.98
535.331	59.12
535.67	59.27
536.008	59.58
536.346	59.83
536.685	59.72
537.023	59.71
537.361	59.88
537.7	59.94
538.038	59.93
538.376	59.95
538.714	60.21
539.052	60.18
539.39	60.26
539.728	60.44
540.066	60.38
540.404	60.4
540.741	60.46
541.079	60.64
541.417	60.58
541.755	60.66
542.092	60.66
542.43	60.52
542.767	60.6
543.105	60.5
543.442	60.51
543.78	60.59
544.117	60.57
544.454	60.58
544.792	60.6
545.129	60.91
545.466	61.08
545.803	61.18
546.14	61.17
546.477	61.27
546.814	61.48
547.151	61.41
547.488	61.59
547.825	61.62
548.162	61.7
548.499	61.82
548.835	62.02
549.172	62
549.509	61.99
549.845	62.11
550.182	61.98
550.518	61.99
550.855	62.07
551.191	62.13
551.528	62.39
551.864	62.56
552.2	62.59
552.537	62.61
552.873	62.58
553.209	62.66
553.545	62.58
553.881	62.58
554.217	62.39
554.553	62.44
554.889	62.47
555.225	62.29
555.561	62.37
555.896	62.23
556.232	62.29
556.568	62.32
556.903	62.34
557.239	62.34
557.575	62.52
557.91	62.61
558.245	62.66
558.581	62.74
558.916	62.72
559.252	62.88
559.587	62.86
559.922	62.78
560.257	62.72
560.592	62.8
560.928	62.86
561.263	63
561.598	63.03
561.933	63.27
562.267	63.4
562.602	63.61
562.937	63.91
563.272	64.02
563.607	64.16
563.941	64.52
564.276	64.78
564.611	64.85
564.945	65.16
565.28	65.39
565.614	65.2
565.949	65.23
566.283	65.23
566.617	65.22
566.951	65.55
567.286	65.87
567.62	65.86
567.954	65.98
568.288	66.13
568.622	66.12
568.956	66.14
569.29	66.27
569.624	66.17
569.958	66.22
570.292	66.15
570.626	66.22
570.959	66.4
571.293	66.43
571.627	66.52
571.96	66.55
572.294	66.48
572.627	66.44
572.961	66.43
573.294	66.28
573.627	66.37
573.961	66.59
574.294	66.65
574.627	66.8
574.961	67.04
575.294	67.03
575.627	67.09
575.96	67.18
576.293	67.05
576.626	67.06
576.959	67.17
577.292	67.25
577.624	67.13
577.957	67.28
578.29	67.34
578.623	67.42
578.955	67.44
579.288	67.22
579.62	67.09
579.953	67.05
580.285	67.15
580.618	67.3
580.95	67.43
581.282	67.57
581.615	67.66
581.947	67.52
582.279	67.55
582.611	67.48
582.943	67.44
583.275	67.29
583.607	67.34
583.939	67.22
584.271	67.13
584.603	67.34
584.935	67.33
585.267	67.26
585.598	67.39
585.93	67.69
586.262	67.64
586.593	67.73
586.925	67.68
587.256	67.49
587.588	67.61
587.919	67.73
588.25	67.84
588.582	67.87
588.913	67.73
589.244	67.64
589.575	67.64
589.907	67.61
590.238	67.58
590.569	67.65
590.9	67.8
591.231	67.76
591.562	67.68
591.892	67.65
592.223	67.69
592.554	67.82
592.885	67.96
593.215	67.92
593.546	67.83
593.877	67.61
594.207	67.35
594.538	67.38
594.868	67.27
595.198	67.2
595.529	67.41
595.859	67.43
596.189	67.58
596.52	67.65
596.85	67.63
597.18	67.6
597.51	67.66
597.84	67.65
598.17	67.68
598.5	67.7
598.83	67.69
599.16	67.69
599.489	67.89
599.819	67.98
600.149	67.84
600.479	67.77
600.808	67.63
601.138	67.43
601.467	67.41
601.797	67.64
602.126	67.75
602.456	67.96
602.785	67.97
603.114	68.02
603.443	68.2
603.773	68.11
604.102	68.23
604.431	68.22
604.76	68.2
605.089	68.2
605.418	68.2
605.747	68.31
606.076	68.24
606.405	68.26
606.733	68.38
607.062	68.33
607.391	68.28
607.72	68.04
608.048	67.98
608.377	68.04
608.705	68.22
609.034	68.29
609.362	68.39
609.69	68.6
610.019	68.51
610.347	68.5
610.675	68.4
611.004	68.5
611.332	68.44
611.66	68.5
611.988	68.4
612.316	68.38
612.644	68.22
612.972	68.09
613.3	68.06
613.627	68.18
613.955	67.94
614.283	67.55
614.611	67.47
614.938	67.6
615.266	67.61
615.593	67.73
615.921	67.69
616.248	67.88
616.576	67.98
616.903	67.71
617.23	67.79
617.558	67.83
617.885	67.73
618.212	67.84
618.539	67.84
618.866	67.5
619.193	67.19
619.52	67.28
619.847	67.22
620.174	67.48
620.501	67.19
620.828	67.18
621.155	67.04
621.481	66.77
621.808	66.59
622.135	66.82
622.461	67.1
622.788	66.98
623.114	66.58
623.441	66.19
623.767	66.05
624.093	66.27
624.42	65.98
624.746	66.24
625.072	66.24
625.398	66.34
625.725	66.67
626.051	66.69
626.377	66.54
626.703	66.37
627.029	67.2
627.354	67.36
627.68	66.9
628.006	67
628.332	66.93
628.658	67.21
628.983	66.77
629.309	67.06
629.634	67.42
629.96	67.28
630.285	67.11
630.611	67.06
630.936	67.62
631.262	68.45
631.587	69
631.912	69.33
632.237	69.43
632.562	69.87
632.887	69.76
633.213	70.25
633.538	70.46
633.863	69.93
634.187	69.73
634.512	69.63
634.837	69.53
635.162	68.88
635.487	68.67
635.811	69.51
636.136	69.35
636.461	69.02
636.785	68.85
637.11	69.55
637.434	69.27
637.758	69.16
638.083	68.98
638.407	69.16
638.731	69.82
639.056	69.1
639.38	68.15
639.704	68.61
640.028	68.61
640.352	68.37
640.676	68.42
641	68.31
641.324	68
641.648	67.29
641.972	67.29
642.295	67.04
642.619	67.7
642.943	67.91
643.266	68.11
643.59	68.47
643.913	67.96
644.237	68
644.56	68.48
644.884	68.62
645.207	68.2
645.53	68.62
645.854	68.66
646.177	69.34
646.5	69.44
646.823	69.17
647.146	69.72
647.469	69.9
647.792	69.43
648.115	69.27
648.438	69.53
648.761	71.19
649.084	71.53
649.406	70.94
649.729	70.14
650.052	69.71
650.374	69.52
650.697	69.16
651.019	69.01
651.342	68.8
651.664	68.72
651.987	68.94
652.309	68.99
652.631	69
652.953	69.18
653.276	69.18
653.598	69.12
653.92	69.18
654.242	69.24
654.564	69.04
654.886	68.94
655.208	68.91
655.53	69.04
655.851	68.93
