Data from T2_Reflection__6__18-50-28-282.txt Node

Date: Fri Jun 04 18:50:28 CEST 2021
User: mabdelazizm
Spectrometer: FLMS18565
Trigger mode: 0
Integration Time (sec): 2.000000E0
Scans to average: 1
Electric dark correction enabled: true
Nonlinearity correction enabled: false
Boxcar width: 12
XAxis mode: Wavelengths
Number of Pixels in Spectrum: 2048
>>>>>Begin Spectral Data<<<<<
179.071	173.68
179.452	136.54
179.833	142.38
180.214	113.46
180.595	124.12
180.977	206.08
181.358	149.74
181.739	103.91
182.12	115.06
182.501	114.22
182.882	33.84
183.262	-45.71
183.643	14.4
184.024	10.51
184.405	9.33
184.786	13.02
185.166	-8.6
185.547	10.56
185.927	14.16
186.308	-3.3
186.689	2.64
187.069	-2.18
187.449	-0.21
187.83	-5.63
188.21	-5
188.59	4.78
188.971	8.73
189.351	9.63
189.731	11.42
190.111	9.13
190.491	9.77
190.871	10.02
191.251	14.16
191.631	17.09
192.011	18.87
192.391	22.24
192.771	21.11
193.151	20.73
193.531	21.02
193.91	22.69
194.29	22.21
194.67	21.81
195.049	19.64
195.429	20.07
195.808	23.91
196.188	20.68
196.567	23.62
196.946	25.58
197.326	24.02
197.705	22.54
198.084	20.26
198.464	17.59
198.843	20.31
199.222	20
199.601	19.49
199.98	20.68
200.359	20.98
200.738	18.97
201.117	14.73
201.496	10.24
201.875	11.15
202.254	13.21
202.632	13.88
203.011	13.11
203.39	13.99
203.768	14.19
204.147	15.63
204.525	13.55
204.904	10.97
205.282	12.12
205.661	10.34
206.039	10.69
206.418	8.35
206.796	11.81
207.174	12.44
207.552	12.33
207.931	10.9
208.309	11.95
208.687	12.84
209.065	14.43
209.443	13.21
209.821	11.57
210.199	9.12
210.577	10.36
210.954	15.15
211.332	13.36
211.71	12.2
212.088	13.16
212.465	15.04
212.843	15.81
213.221	16.52
213.598	15.94
213.976	15.38
214.353	18.01
214.731	15.84
215.108	17.5
215.485	15.71
215.863	15.98
216.24	13.81
216.617	12.73
216.994	13.57
217.371	15.17
217.749	14.59
218.126	13.37
218.503	12.08
218.88	11.33
219.256	11.68
219.633	13.34
220.01	12.96
220.387	12.31
220.764	12.19
221.14	12.78
221.517	11.42
221.894	10.98
222.27	9.43
222.647	8.73
223.023	8.46
223.4	9.13
223.776	8.78
224.153	8.77
224.529	8.93
224.905	9.48
225.282	9.43
225.658	9.31
226.034	8.83
226.41	8.36
226.786	7.91
227.162	7.78
227.538	7.53
227.914	7.35
228.29	7.45
228.666	7.43
229.042	7.11
229.418	7.28
229.793	7.03
230.169	6.98
230.545	6.67
230.92	6.76
231.296	6.71
231.672	6.77
232.047	6.76
232.422	6.65
232.798	6.7
233.173	6.62
233.549	6.6
233.924	6.59
234.299	6.64
234.674	6.51
235.05	6.54
235.425	6.7
235.8	6.7
236.175	6.75
236.55	6.69
236.925	6.76
237.3	6.92
237.675	7.06
238.049	7.02
238.424	7.05
238.799	6.95
239.174	6.92
239.548	7.02
239.923	7.14
240.297	7.14
240.672	7.1
241.046	7.05
241.421	7.04
241.795	6.97
242.17	6.91
242.544	6.91
242.918	6.86
243.293	6.81
243.667	6.71
244.041	6.78
244.415	6.78
244.789	6.77
245.163	6.78
245.537	6.73
245.911	6.79
246.285	6.75
246.659	6.69
247.033	6.58
247.406	6.58
247.78	6.59
248.154	6.58
248.528	6.59
248.901	6.51
249.275	6.4
249.648	6.44
250.022	6.37
250.395	6.33
250.769	6.27
251.142	6.29
251.515	6.29
251.888	6.25
252.262	6.24
252.635	6.2
253.008	6.22
253.381	6.18
253.754	6.19
254.127	6.17
254.5	6.09
254.873	6.07
255.246	6.04
255.619	6.11
255.992	6.11
256.364	6.11
256.737	6.12
257.11	6.05
257.483	6.05
257.855	6.03
258.228	6.05
258.6	6.08
258.973	6.07
259.345	6.07
259.718	6.02
260.09	6.02
260.462	6
260.834	5.95
261.207	5.98
261.579	5.98
261.951	5.99
262.323	5.87
262.695	5.87
263.067	5.86
263.439	5.85
263.811	5.92
264.183	5.96
264.555	5.93
264.927	5.89
265.298	5.81
265.67	5.76
266.042	5.71
266.413	5.74
266.785	5.71
267.156	5.73
267.528	5.69
267.899	5.69
268.271	5.65
268.642	5.58
269.013	5.61
269.385	5.65
269.756	5.67
270.127	5.61
270.498	5.61
270.87	5.61
271.241	5.6
271.612	5.62
271.983	5.61
272.354	5.51
272.724	5.47
273.095	5.44
273.466	5.39
273.837	5.34
274.208	5.3
274.578	5.29
274.949	5.3
275.32	5.28
275.69	5.21
276.061	5.19
276.431	5.12
276.802	5.07
277.172	5
277.542	4.99
277.913	5.05
278.283	5.1
278.653	5.06
279.023	5
279.394	5.1
279.764	5.07
280.134	5.06
280.504	5.04
280.874	5.06
281.244	5
281.614	5.03
281.983	5.02
282.353	5.04
282.723	5.02
283.093	5.02
283.462	5
283.832	5.03
284.202	5.04
284.571	5.02
284.941	5.01
285.31	5.03
285.68	5.05
286.049	5.03
286.418	5.05
286.788	5.03
287.157	5.02
287.526	4.94
287.895	4.93
288.264	4.96
288.633	4.91
289.002	4.82
289.371	4.81
289.74	4.76
290.109	4.8
290.478	4.77
290.847	4.76
291.216	4.75
291.585	4.69
291.953	4.63
292.322	4.63
292.691	4.59
293.059	4.51
293.428	4.47
293.796	4.54
294.165	4.56
294.533	4.51
294.901	4.49
295.27	4.53
295.638	4.47
296.006	4.43
296.374	4.37
296.743	4.34
297.111	4.32
297.479	4.26
297.847	4.26
298.215	4.29
298.583	4.2
298.95	4.23
299.318	4.16
299.686	4.12
300.054	4.1
300.422	4.12
300.789	4.05
301.157	4.1
301.525	4.1
301.892	4.14
302.26	4.13
302.627	4.16
302.994	4.12
303.362	4.17
303.729	4.2
304.097	4.17
304.464	4.12
304.831	4.16
305.198	4.16
305.565	4.2
305.932	4.2
306.299	4.19
306.666	4.16
307.033	4.11
307.4	4.11
307.767	4.13
308.134	4.07
308.501	4.08
308.867	4.14
309.234	4.15
309.601	4.17
309.967	4.19
310.334	4.18
310.701	4.15
311.067	4.11
311.433	4.16
311.8	4.07
312.166	4.04
312.533	3.93
312.899	3.92
313.265	3.95
313.631	4
313.997	3.99
314.363	3.98
314.729	3.94
315.096	3.95
315.461	3.92
315.827	3.97
316.193	3.98
316.559	3.98
316.925	3.98
317.291	4.02
317.656	3.99
318.022	3.98
318.388	4.03
318.753	3.93
319.119	3.94
319.484	3.95
319.85	3.93
320.215	3.92
320.581	3.88
320.946	3.94
321.311	3.91
321.676	3.91
322.042	3.9
322.407	3.82
322.772	3.84
323.137	3.82
323.502	3.86
323.867	3.91
324.232	3.85
324.597	3.87
324.962	3.82
325.327	3.87
325.691	3.86
326.056	3.87
326.421	3.85
326.785	3.85
327.15	3.82
327.514	3.7
327.879	3.75
328.243	3.79
328.608	3.73
328.972	3.79
329.337	3.76
329.701	3.79
330.065	3.8
330.429	3.83
330.794	3.87
331.158	3.84
331.522	3.86
331.886	3.82
332.25	3.83
332.614	3.77
332.978	3.69
333.342	3.73
333.705	3.72
334.069	3.71
334.433	3.66
334.797	3.68
335.16	3.66
335.524	3.67
335.887	3.7
336.251	3.7
336.614	3.76
336.978	3.75
337.341	3.7
337.705	3.68
338.068	3.64
338.431	3.69
338.794	3.63
339.158	3.6
339.521	3.57
339.884	3.49
340.247	3.52
340.61	3.47
340.973	3.46
341.336	3.46
341.699	3.41
342.062	3.43
342.424	3.43
342.787	3.43
343.15	3.46
343.512	3.47
343.875	3.45
344.238	3.52
344.6	3.47
344.963	3.42
345.325	3.38
345.688	3.37
346.05	3.37
346.412	3.45
346.775	3.5
347.137	3.51
347.499	3.43
347.861	3.44
348.223	3.43
348.585	3.45
348.947	3.45
349.309	3.41
349.671	3.48
350.033	3.42
350.395	3.4
350.757	3.41
351.118	3.36
351.48	3.33
351.842	3.42
352.203	3.4
352.565	3.29
352.927	3.29
353.288	3.21
353.65	3.2
354.011	3.22
354.372	3.27
354.734	3.28
355.095	3.28
355.456	3.2
355.817	3.14
356.179	3.12
356.54	3.21
356.901	3.18
357.262	3.17
357.623	3.13
357.984	3.23
358.345	3.21
358.705	3.19
359.066	3.27
359.427	3.31
359.788	3.33
360.148	3.39
360.509	3.42
360.87	3.31
361.23	3.27
361.591	3.36
361.951	3.35
362.312	3.33
362.672	3.39
363.032	3.38
363.393	3.34
363.753	3.24
364.113	3.2
364.473	3.15
364.833	3.21
365.193	3.16
365.553	3.12
365.913	3.11
366.273	3.06
366.633	3.06
366.993	2.98
367.353	2.98
367.713	2.94
368.072	2.84
368.432	2.81
368.792	2.8
369.151	2.79
369.511	2.84
369.87	2.8
370.23	2.89
370.589	2.94
370.949	2.88
371.308	2.92
371.667	2.89
372.027	2.85
372.386	2.86
372.745	2.94
373.104	2.93
373.463	2.97
373.822	2.92
374.181	2.98
374.54	3.02
374.899	3.03
375.258	3.01
375.617	3.07
375.975	3.04
376.334	3.02
376.693	3.1
377.052	3.19
377.41	3.19
377.769	3.19
378.127	3.21
378.486	3.11
378.844	3.14
379.202	3.11
379.561	3.01
379.919	3.04
380.277	3.06
380.636	3.04
380.994	3.07
381.352	3.05
381.71	2.98
382.068	3.05
382.426	3.01
382.784	3.06
383.142	3
383.5	3
383.857	3.03
384.215	3.05
384.573	3
384.931	3.1
385.288	3.08
385.646	3.02
386.003	2.99
386.361	2.95
386.718	2.93
387.076	2.91
387.433	2.93
387.791	2.9
388.148	2.87
388.505	2.9
388.862	2.86
389.22	2.83
389.577	2.83
389.934	2.91
390.291	2.88
390.648	2.91
391.005	2.84
391.362	2.8
391.718	2.74
392.075	2.75
392.432	2.69
392.789	2.73
393.145	2.76
393.502	2.75
393.859	2.73
394.215	2.75
394.572	2.69
394.928	2.62
395.285	2.65
395.641	2.7
395.997	2.73
396.354	2.76
396.71	2.83
397.066	2.85
397.422	2.87
397.778	2.9
398.134	2.96
398.491	2.89
398.846	2.83
399.202	2.86
399.558	2.77
399.914	2.8
400.27	2.81
400.626	2.79
400.981	2.82
401.337	2.89
401.693	2.86
402.048	2.8
402.404	2.85
402.759	2.83
403.115	2.82
403.47	2.88
403.826	2.96
404.181	2.92
404.536	2.84
404.892	2.8
405.247	2.75
405.602	2.64
405.957	2.64
406.312	2.61
406.667	2.62
407.022	2.61
407.377	2.64
407.732	2.62
408.087	2.65
408.442	2.72
408.796	2.72
409.151	2.81
409.506	2.92
409.86	2.92
410.215	2.82
410.57	2.77
410.924	2.9
411.279	2.85
411.633	2.83
411.987	2.92
412.342	2.97
412.696	2.98
413.05	3.04
413.404	3.14
413.758	3.17
414.113	3.27
414.467	3.33
414.821	3.27
415.175	3.28
415.529	3.2
415.882	3.13
416.236	3.23
416.59	3.26
416.944	3.27
417.298	3.34
417.651	3.39
418.005	3.42
418.358	3.4
418.712	3.42
419.065	3.51
419.419	3.57
419.772	3.49
420.126	3.56
420.479	3.63
420.832	3.54
421.185	3.55
421.539	3.5
421.892	3.51
422.245	3.46
422.598	3.46
422.951	3.42
423.304	3.46
423.657	3.57
424.01	3.59
424.363	3.6
424.715	3.65
425.068	3.62
425.421	3.63
425.773	3.6
426.126	3.67
426.479	3.69
426.831	3.67
427.184	3.67
427.536	3.7
427.889	3.67
428.241	3.65
428.593	3.67
428.945	3.68
429.298	3.67
429.65	3.7
430.002	3.69
430.354	3.8
430.706	3.79
431.058	3.86
431.41	3.86
431.762	3.82
432.114	3.86
432.466	3.83
432.817	3.86
433.169	3.93
433.521	3.95
433.872	3.95
434.224	3.97
434.576	3.97
434.927	3.92
435.279	3.87
435.63	3.88
435.981	3.9
436.333	3.86
436.684	3.84
437.035	3.89
437.387	3.93
437.738	3.93
438.089	3.93
438.44	3.97
438.791	3.87
439.142	3.85
439.493	3.91
439.844	3.89
440.195	3.97
440.545	4.02
440.896	4.05
441.247	4.07
441.598	4.02
441.948	4.03
442.299	4.04
442.649	4.05
443	4.06
443.35	4.05
443.701	4.06
444.051	4.07
444.401	4.01
444.752	3.97
445.102	3.99
445.452	3.97
445.802	3.92
446.152	3.89
446.502	3.91
446.852	3.87
447.202	3.91
447.552	3.97
447.902	3.98
448.252	3.89
448.602	4.08
448.952	4.09
449.301	4.1
449.651	4.05
450.001	3.99
450.35	4.02
450.7	4.06
451.049	4.09
451.399	4.15
451.748	4.14
452.097	4.29
452.447	4.24
452.796	4.31
453.145	4.41
453.494	4.49
453.843	4.53
454.193	4.64
454.542	4.7
454.891	4.79
455.239	4.73
455.588	4.79
455.937	4.76
456.286	4.75
456.635	4.77
456.984	4.83
457.332	4.67
457.681	4.64
458.03	4.7
458.378	4.67
458.727	4.69
459.075	4.69
459.423	4.74
459.772	4.73
460.12	4.68
460.468	4.76
460.817	4.71
461.165	4.79
461.513	4.75
461.861	4.69
462.209	4.71
462.557	4.77
462.905	4.7
463.253	4.76
463.601	4.79
463.949	4.87
464.297	4.89
464.644	4.93
464.992	5
465.34	5.07
465.687	5.1
466.035	4.98
466.383	5.01
466.73	4.98
467.078	4.97
467.425	5.04
467.772	5.13
468.12	5.11
468.467	5.08
468.814	5.19
469.161	5.18
469.508	5.24
469.856	5.24
470.203	5.28
470.55	5.25
470.897	5.25
471.243	5.21
471.59	5.23
471.937	5.24
472.284	5.19
472.631	5.13
472.977	5.12
473.324	5.14
473.671	5.09
474.017	4.98
474.364	4.9
474.71	4.99
475.057	4.91
475.403	4.97
475.749	5.05
476.096	5
476.442	4.96
476.788	4.99
477.134	5.01
477.48	4.98
477.826	5
478.172	4.88
478.518	4.92
478.864	4.94
479.21	5.02
479.556	5.04
479.902	5.08
480.248	5.15
480.593	5.1
480.939	5.07
481.285	5.1
481.63	5.12
481.976	5.14
482.321	5.2
482.667	5.28
483.012	5.34
483.357	5.37
483.703	5.47
484.048	5.47
484.393	5.55
484.738	5.6
485.084	5.64
485.429	5.63
485.774	5.66
486.119	5.68
486.464	5.76
486.808	5.86
487.153	5.89
487.498	5.97
487.843	5.95
488.188	5.97
488.532	6.08
488.877	6.15
489.222	6.27
489.566	6.48
489.911	6.67
490.255	6.81
490.6	6.95
490.944	7.03
491.288	7.2
491.633	7.4
491.977	7.58
492.321	7.78
492.665	8.03
493.009	8.2
493.353	8.47
493.697	8.69
494.041	8.93
494.385	9.22
494.729	9.47
495.073	9.73
495.417	10
495.76	10.31
496.104	10.6
496.448	11.04
496.791	11.46
497.135	11.82
497.479	12.16
497.822	12.56
498.165	12.95
498.509	13.39
498.852	13.91
499.196	14.36
499.539	14.88
499.882	15.32
500.225	15.82
500.568	16.29
500.911	16.73
501.254	17.15
501.597	17.58
501.94	17.98
502.283	18.48
502.626	18.98
502.969	19.46
503.312	20
503.654	20.52
503.997	21.06
504.34	21.61
504.682	22.14
505.025	22.62
505.367	23.14
505.71	23.62
506.052	24.16
506.395	24.71
506.737	25.25
507.079	25.78
507.421	26.36
507.764	26.93
508.106	27.4
508.448	27.91
508.79	28.43
509.132	28.91
509.474	29.43
509.816	30.01
510.158	30.54
510.499	31.19
510.841	31.74
511.183	32.34
511.525	32.84
511.866	33.37
512.208	33.92
512.549	34.32
512.891	34.79
513.232	35.34
513.574	35.89
513.915	36.28
514.256	36.83
514.598	37.38
514.939	37.86
515.28	38.27
515.621	38.66
515.962	39.01
516.303	39.46
516.644	40.05
516.985	40.48
517.326	40.83
517.667	41.33
518.008	41.68
518.349	42.02
518.69	42.42
519.03	42.74
519.371	43.21
519.712	43.46
520.052	43.87
520.393	44.14
520.733	44.54
521.074	45.02
521.414	45.43
521.754	45.69
522.095	46.03
522.435	46.41
522.775	46.69
523.115	47
523.455	47.22
523.795	47.52
524.135	47.81
524.475	48.1
524.815	48.29
525.155	48.5
525.495	48.73
525.835	48.95
526.175	49.19
526.514	49.49
526.854	49.68
527.194	49.91
527.533	50.04
527.873	50
528.212	50.23
528.552	50.49
528.891	50.73
529.23	50.86
529.57	51.07
529.909	51.19
530.248	51.34
530.587	51.54
530.927	51.85
531.266	51.97
531.605	51.99
531.944	52.18
532.283	52.27
532.621	52.37
532.96	52.53
533.299	52.73
533.638	52.83
533.977	52.97
534.315	53.16
534.654	53.1
534.992	53.26
535.331	53.38
535.67	53.62
536.008	53.78
536.346	53.97
536.685	54.04
537.023	53.94
537.361	54.06
537.7	54.04
538.038	54.07
538.376	54.05
538.714	54.25
539.052	54.32
539.39	54.25
539.728	54.3
540.066	54.34
540.404	54.37
540.741	54.53
541.079	54.63
541.417	54.58
541.755	54.65
542.092	54.76
542.43	54.71
542.767	54.77
543.105	54.94
543.442	54.93
543.78	55.02
544.117	54.96
544.454	55.05
544.792	55.11
545.129	55.2
545.466	55.4
545.803	55.42
546.14	55.53
546.477	55.6
546.814	55.74
547.151	55.62
547.488	55.63
547.825	55.73
548.162	55.69
548.499	55.9
548.835	56.12
549.172	56.18
549.509	56.24
549.845	56.34
550.182	56.24
550.518	56.21
550.855	56.45
551.191	56.46
551.528	56.53
551.864	56.74
552.2	56.81
552.537	56.83
552.873	56.89
553.209	57.15
553.545	57.14
553.881	57.06
554.217	57.11
554.553	57.22
554.889	57.35
555.225	57.42
555.561	57.4
555.896	57.6
556.232	57.68
556.568	57.86
556.903	57.85
557.239	57.79
557.575	57.93
557.91	57.88
558.245	57.86
558.581	58.02
558.916	58.14
559.252	58.08
559.587	58.07
559.922	58.09
560.257	57.94
560.592	57.98
560.928	58.14
561.263	58.26
561.598	58.13
561.933	58.21
562.267	58.21
562.602	58.37
562.937	58.4
563.272	58.37
563.607	58.35
563.941	58.61
564.276	58.59
564.611	58.57
564.945	58.52
565.28	58.72
565.614	58.52
565.949	58.47
566.283	58.45
566.617	58.55
566.951	58.62
567.286	58.65
567.62	58.62
567.954	58.57
568.288	58.59
568.622	58.57
568.956	58.54
569.29	58.64
569.624	58.54
569.958	58.52
570.292	58.52
570.626	58.72
570.959	58.75
571.293	58.69
571.627	58.7
571.96	58.72
572.294	58.67
572.627	58.54
572.961	58.56
573.294	58.59
573.627	58.55
573.961	58.69
574.294	58.71
574.627	58.83
574.961	58.8
575.294	58.82
575.627	58.89
575.96	58.94
576.293	58.93
576.626	59.01
576.959	59.14
577.292	59.16
577.624	59.08
577.957	59.05
578.29	59.1
578.623	59.03
578.955	59.03
579.288	58.92
579.62	58.96
579.953	58.91
580.285	58.95
580.618	58.98
580.95	59.04
581.282	59.13
581.615	59.18
581.947	59.04
582.279	59.07
582.611	58.99
582.943	59
583.275	59.1
583.607	59.11
583.939	59.01
584.271	58.94
584.603	59
584.935	58.94
585.267	58.86
585.598	58.95
585.93	58.96
586.262	58.99
586.593	58.96
586.925	59.13
587.256	59.01
587.588	59.03
587.919	59.03
588.25	59.17
588.582	59.14
588.913	59.22
589.244	59.26
589.575	59.23
589.907	59.18
590.238	59.19
590.569	59.23
590.9	59.23
591.231	59.16
591.562	59.06
591.892	58.99
592.223	58.94
592.554	59.08
592.885	59.11
593.215	59.02
593.546	58.98
593.877	58.85
594.207	58.91
594.538	58.99
594.868	58.98
595.198	58.96
595.529	58.99
595.859	58.92
596.189	58.95
596.52	58.99
596.85	59.04
597.18	59.06
597.51	59.04
597.84	59.02
598.17	59.14
598.5	59.21
598.83	59.28
599.16	59.43
599.489	59.45
599.819	59.44
600.149	59.48
600.479	59.41
600.808	59.37
601.138	59.33
601.467	59.3
601.797	59.4
602.126	59.38
602.456	59.24
602.785	59.28
603.114	59.35
603.443	59.36
603.773	59.28
604.102	59.37
604.431	59.4
604.76	59.16
605.089	59.12
605.418	59.06
605.747	59.07
606.076	59.09
606.405	58.87
606.733	58.86
607.062	58.67
607.391	58.45
607.72	58.36
608.048	58.32
608.377	58.27
608.705	58.49
609.034	58.38
609.362	58.41
609.69	58.61
610.019	58.49
610.347	58.62
610.675	58.85
611.004	58.97
611.332	58.97
611.66	59.03
611.988	59.01
612.316	59.09
612.644	58.87
612.972	59.04
613.3	59.06
613.627	59.03
613.955	59.01
614.283	58.74
614.611	58.81
614.938	58.98
615.266	59.05
615.593	59.4
615.921	59.53
616.248	59.69
616.576	59.71
616.903	59.73
617.23	59.78
617.558	59.9
617.885	59.88
618.212	59.82
618.539	59.68
618.866	59.24
619.193	58.81
619.52	58.78
619.847	58.6
620.174	58.74
620.501	58.61
620.828	58.78
621.155	58.78
621.481	58.43
621.808	58.21
622.135	58.18
622.461	58.07
622.788	58.06
623.114	57.64
623.441	57.44
623.767	56.9
624.093	56.7
624.42	56.39
624.746	56.27
625.072	55.91
625.398	56.12
625.725	55.95
626.051	55.81
626.377	55.95
626.703	56.04
627.029	56.38
627.354	56.35
627.68	56.11
628.006	55.91
628.332	55.82
628.658	55.8
628.983	55.57
629.309	55.68
629.634	56.12
629.96	56.48
630.285	56.4
630.611	56.77
630.936	57.05
631.262	57.67
631.587	57.99
631.912	58.49
632.237	58.8
632.562	59.39
632.887	59.64
633.213	60.09
633.538	60.16
633.863	60.08
634.187	59.62
634.512	59.49
634.837	59.61
635.162	59.19
635.487	59.12
635.811	59.26
636.136	60.07
636.461	59.89
636.785	59.68
637.11	59.33
637.434	58.92
637.758	58.69
638.083	58.25
638.407	57.96
638.731	57.83
639.056	57.24
639.38	56.76
639.704	56.72
640.028	56.8
640.352	56.64
640.676	56.23
641	55.71
641.324	55.32
641.648	55.04
641.972	55.44
642.295	55.53
642.619	55.41
642.943	54.94
643.266	55.39
643.59	55.59
643.913	55.49
644.237	54.84
644.56	54.58
644.884	54.49
645.207	55.11
645.53	55.34
645.854	55.24
646.177	55.15
646.5	55.29
646.823	55.53
647.146	55.76
647.469	56.23
647.792	56.11
648.115	55.92
648.438	55.79
648.761	56.31
649.084	56.62
649.406	56.74
649.729	56.63
650.052	56.55
650.374	56.67
650.697	56.81
651.019	56.89
651.342	56.75
651.664	56.77
651.987	56.89
652.309	56.91
652.631	56.98
652.953	57.2
653.276	57.16
653.598	57.16
653.92	57.31
654.242	57.48
654.564	57.64
654.886	57.49
655.208	57.52
655.53	57.46
655.851	57.38
656.173	57.4
656.495	57.44
656.816	57.31
657.138	57.24
657.46	57.06
657.781	57.44
658.103	57.72
658.424	57.06
658.746	56.75
659.067	56.06
659.388	56.87
659.709	56.81
660.031	55.87
660.352	55.67
660.673	54.73
660.994	54.44
661.315	55.01
661.636	55.26
661.957	55.16
662.278	54.58
662.599	54.18
662.919	54.19
663.24	54.48
663.561	53.55
