Data from T2_Reflection__105__20-02-58-141.txt Node

Date: Fri Jun 04 20:02:58 CEST 2021
User: mabdelazizm
Spectrometer: FLMS18565
Trigger mode: 0
Integration Time (sec): 2.000000E0
Scans to average: 1
Electric dark correction enabled: true
Nonlinearity correction enabled: false
Boxcar width: 12
XAxis mode: Wavelengths
Number of Pixels in Spectrum: 2048
>>>>>Begin Spectral Data<<<<<
179.071	-70.48
179.452	-35.63
179.833	-135.65
180.214	-161.54
180.595	-187.89
180.977	-303.42
181.358	-265.62
181.739	-229.05
182.12	-150.6
182.501	-183.22
182.882	-238.27
183.262	-977.14
183.643	-141.17
184.024	-76.74
184.405	-34.1
184.786	-8.38
185.166	5.67
185.547	8.89
185.927	17.09
186.308	7.45
186.689	18.79
187.069	18.97
187.449	7.6
187.83	0.28
188.21	-2.05
188.59	6.4
188.971	6.02
189.351	8.96
189.731	12.26
190.111	13.67
190.491	9.85
190.871	10.41
191.251	12.41
191.631	13.59
192.011	14.24
192.391	14.06
192.771	15.93
193.151	9.76
193.531	9.11
193.91	11.09
194.29	8.93
194.67	7.98
195.049	3.46
195.429	2.14
195.808	1.18
196.188	-2.65
196.567	-3.37
196.946	1.74
197.326	4.39
197.705	5.04
198.084	1.29
198.464	0.37
198.843	0.43
199.222	-1.87
199.601	-2.91
199.98	-3.2
200.359	-1.54
200.738	-0.58
201.117	-3.56
201.496	-7.17
201.875	-5.78
202.254	-5.11
202.632	-3.8
203.011	-1.88
203.39	-3.53
203.768	-2.52
204.147	-1.55
204.525	-1.62
204.904	-3.36
205.282	0.08
205.661	-1.9
206.039	-1
206.418	-4.84
206.796	-5.55
207.174	-6.54
207.552	-4.63
207.931	-5.47
208.309	-5.75
208.687	-2.75
209.065	0.96
209.443	1.88
209.821	0.15
210.199	-2.2
210.577	-0.91
210.954	3.6
211.332	2.02
211.71	0.51
212.088	1.38
212.465	1.49
212.843	3.2
213.221	3.26
213.598	4.07
213.976	4.09
214.353	4.14
214.731	1.48
215.108	2.71
215.485	1.51
215.863	1.77
216.24	2.34
216.617	2.97
216.994	2.76
217.371	3.41
217.749	2.72
218.126	1.31
218.503	-0.68
218.88	-2.13
219.256	-2.43
219.633	-2.32
220.01	-2.88
220.387	-3.78
220.764	-2.26
221.14	-1.17
221.517	-1.25
221.894	-2.18
222.27	-2.27
222.647	-2.26
223.023	-2.51
223.4	-2.21
223.776	-1.18
224.153	-1.28
224.529	-1.31
224.905	-0.37
225.282	-0.28
225.658	-0.79
226.034	-1.18
226.41	-0.93
226.786	-1.17
227.162	-0.72
227.538	-0.97
227.914	-0.44
228.29	0.33
228.666	0.5
229.042	0.64
229.418	0.91
229.793	0.78
230.169	0.67
230.545	0.44
230.92	0.23
231.296	0.47
231.672	0.45
232.047	0.66
232.422	0.45
232.798	0.78
233.173	0.7
233.549	0.93
233.924	1.09
234.299	1.09
234.674	1.24
235.05	1.33
235.425	1.35
235.8	1.36
236.175	1.47
236.55	1.53
236.925	1.65
237.3	1.7
237.675	1.62
238.049	1.53
238.424	1.55
238.799	1.71
239.174	1.82
239.548	1.88
239.923	2.04
240.297	2.16
240.672	2.15
241.046	2.26
241.421	2.26
241.795	2.29
242.17	2.16
242.544	2.21
242.918	2.14
243.293	2.13
243.667	2.09
244.041	2.13
244.415	2.14
244.789	2.23
245.163	2.22
245.537	2.19
245.911	2.24
246.285	2.28
246.659	2.26
247.033	2.33
247.406	2.37
247.78	2.44
248.154	2.33
248.528	2.34
248.901	2.39
249.275	2.37
249.648	2.4
250.022	2.43
250.395	2.4
250.769	2.37
251.142	2.49
251.515	2.56
251.888	2.55
252.262	2.61
252.635	2.66
253.008	2.69
253.381	2.67
253.754	2.71
254.127	2.72
254.5	2.75
254.873	2.78
255.246	2.74
255.619	2.75
255.992	2.79
256.364	2.69
256.737	2.7
257.11	2.69
257.483	2.74
257.855	2.8
258.228	2.76
258.6	2.78
258.973	2.79
259.345	2.87
259.718	2.83
260.09	2.86
260.462	2.78
260.834	2.76
261.207	2.74
261.579	2.71
261.951	2.74
262.323	2.68
262.695	2.71
263.067	2.73
263.439	2.73
263.811	2.75
264.183	2.79
264.555	2.83
264.927	2.82
265.298	2.75
265.67	2.75
266.042	2.75
266.413	2.75
266.785	2.68
267.156	2.6
267.528	2.57
267.899	2.55
268.271	2.52
268.642	2.38
269.013	2.38
269.385	2.37
269.756	2.41
270.127	2.39
270.498	2.43
270.87	2.45
271.241	2.39
271.612	2.43
271.983	2.45
272.354	2.41
272.724	2.41
273.095	2.43
273.466	2.37
273.837	2.3
274.208	2.28
274.578	2.26
274.949	2.34
275.32	2.35
275.69	2.32
276.061	2.36
276.431	2.36
276.802	2.37
277.172	2.35
277.542	2.34
277.913	2.39
278.283	2.45
278.653	2.46
279.023	2.43
279.394	2.45
279.764	2.42
280.134	2.4
280.504	2.39
280.874	2.35
281.244	2.33
281.614	2.28
281.983	2.24
282.353	2.26
282.723	2.3
283.093	2.37
283.462	2.38
283.832	2.42
284.202	2.39
284.571	2.34
284.941	2.27
285.31	2.29
285.68	2.35
286.049	2.29
286.418	2.27
286.788	2.38
287.157	2.39
287.526	2.4
287.895	2.41
288.264	2.4
288.633	2.36
289.002	2.32
289.371	2.37
289.74	2.31
290.109	2.31
290.478	2.27
290.847	2.35
291.216	2.35
291.585	2.26
291.953	2.21
292.322	2.19
292.691	2.17
293.059	2.16
293.428	2.16
293.796	2.22
294.165	2.28
294.533	2.24
294.901	2.21
295.27	2.26
295.638	2.22
296.006	2.12
296.374	2.04
296.743	1.99
297.111	1.93
297.479	1.95
297.847	2.01
298.215	2
298.583	1.94
298.95	2.03
299.318	2.05
299.686	2.04
300.054	1.97
300.422	2
300.789	1.97
301.157	2.01
301.525	1.97
301.892	1.97
302.26	1.97
302.627	2.02
302.994	1.98
303.362	1.98
303.729	2.04
304.097	2.01
304.464	1.99
304.831	2.01
305.198	2.01
305.565	2.06
305.932	2.04
306.299	2.04
306.666	1.98
307.033	1.89
307.4	1.93
307.767	1.88
308.134	1.82
308.501	1.82
308.867	1.83
309.234	1.87
309.601	1.86
309.967	1.88
310.334	1.88
310.701	1.88
311.067	1.88
311.433	1.89
311.8	1.79
312.166	1.82
312.533	1.79
312.899	1.74
313.265	1.78
313.631	1.85
313.997	1.88
314.363	1.84
314.729	1.84
315.096	1.82
315.461	1.81
315.827	1.87
316.193	1.89
316.559	1.92
316.925	1.97
317.291	2
317.656	2.02
318.022	2
318.388	1.98
318.753	1.96
319.119	1.98
319.484	2.06
319.85	2.07
320.215	2.08
320.581	2.1
320.946	2.14
321.311	2.11
321.676	2.14
322.042	2.16
322.407	2.14
322.772	2.15
323.137	2.16
323.502	2.24
323.867	2.25
324.232	2.16
324.597	2.16
324.962	2.16
325.327	2.23
325.691	2.23
326.056	2.2
326.421	2.16
326.785	2.14
327.15	2.12
327.514	2.08
327.879	2.11
328.243	2.1
328.608	1.99
328.972	1.99
329.337	1.92
329.701	1.89
330.065	1.89
330.429	1.89
330.794	1.87
331.158	1.84
331.522	1.76
331.886	1.68
332.25	1.63
332.614	1.6
332.978	1.59
333.342	1.71
333.705	1.72
334.069	1.71
334.433	1.63
334.797	1.63
335.16	1.63
335.524	1.7
335.887	1.69
336.251	1.67
336.614	1.71
336.978	1.7
337.341	1.7
337.705	1.72
338.068	1.82
338.431	1.81
338.794	1.76
339.158	1.76
339.521	1.76
339.884	1.77
340.247	1.78
340.61	1.83
340.973	1.83
341.336	1.84
341.699	1.74
342.062	1.71
342.424	1.71
342.787	1.66
343.15	1.6
343.512	1.61
343.875	1.59
344.238	1.64
344.6	1.57
344.963	1.59
345.325	1.58
345.688	1.49
346.05	1.42
346.412	1.42
346.775	1.37
347.137	1.22
347.499	1.22
347.861	1.3
348.223	1.34
348.585	1.27
348.947	1.22
349.309	1.15
349.671	1.19
350.033	1.24
350.395	1.21
350.757	1.26
351.118	1.22
351.48	1.21
351.842	1.27
352.203	1.33
352.565	1.32
352.927	1.37
353.288	1.39
353.65	1.41
354.011	1.42
354.372	1.49
354.734	1.53
355.095	1.58
355.456	1.58
355.817	1.59
356.179	1.63
356.54	1.63
356.901	1.59
357.262	1.53
357.623	1.57
357.984	1.69
358.345	1.79
358.705	1.75
359.066	1.74
359.427	1.74
359.788	1.71
360.148	1.72
360.509	1.74
360.87	1.74
361.23	1.77
361.591	1.77
361.951	1.72
362.312	1.67
362.672	1.64
363.032	1.63
363.393	1.65
363.753	1.62
364.113	1.58
364.473	1.58
364.833	1.61
365.193	1.57
365.553	1.64
365.913	1.61
366.273	1.6
366.633	1.64
366.993	1.5
367.353	1.37
367.713	1.37
368.072	1.29
368.432	1.36
368.792	1.36
369.151	1.36
369.511	1.33
369.87	1.25
370.23	1.25
370.589	1.26
370.949	1.23
371.308	1.2
371.667	1.25
372.027	1.26
372.386	1.21
372.745	1.28
373.104	1.29
373.463	1.27
373.822	1.29
374.181	1.35
374.54	1.29
374.899	1.36
375.258	1.34
375.617	1.31
375.975	1.33
376.334	1.42
376.693	1.47
377.052	1.52
377.41	1.45
377.769	1.52
378.127	1.57
378.486	1.55
378.844	1.51
379.202	1.41
379.561	1.37
379.919	1.38
380.277	1.34
380.636	1.26
380.994	1.18
381.352	1.14
381.71	1.05
382.068	1.09
382.426	1.07
382.784	1.04
383.142	1.01
383.5	1.04
383.857	1.06
384.215	1.01
384.573	0.97
384.931	0.99
385.288	0.93
385.646	0.86
386.003	0.85
386.361	0.81
386.718	0.77
387.076	0.76
387.433	0.77
387.791	0.82
388.148	0.88
388.505	0.88
388.862	0.96
389.22	1.07
389.577	1.13
389.934	1.18
390.291	1.24
390.648	1.29
391.005	1.24
391.362	1.22
391.718	1.21
392.075	1.16
392.432	1.15
392.789	1.09
393.145	1.17
393.502	1.2
393.859	1.19
394.215	1.24
394.572	1.25
394.928	1.22
395.285	1.27
395.641	1.3
395.997	1.26
396.354	1.28
396.71	1.32
397.066	1.33
397.422	1.38
397.778	1.28
398.134	1.29
398.491	1.24
398.846	1.22
399.202	1.19
399.558	1.14
399.914	1.21
400.27	1.19
400.626	1.13
400.981	1.19
401.337	1.24
401.693	1.29
402.048	1.24
402.404	1.23
402.759	1.29
403.115	1.26
403.47	1.25
403.826	1.29
404.181	1.27
404.536	1.23
404.892	1.2
405.247	1.21
405.602	1.17
405.957	1.15
406.312	1.08
406.667	1.07
407.022	0.98
407.377	1.03
407.732	1.02
408.087	0.96
408.442	0.99
408.796	0.96
409.151	1
409.506	1.09
409.86	1.03
410.215	0.95
410.57	0.9
410.924	1
411.279	0.93
411.633	0.86
411.987	0.9
412.342	0.94
412.696	0.97
413.05	1.04
413.404	1.07
413.758	1.16
414.113	1.17
414.467	1.19
414.821	1.2
415.175	1.29
415.529	1.25
415.882	1.29
416.236	1.28
416.59	1.3
416.944	1.39
417.298	1.47
417.651	1.45
418.005	1.49
418.358	1.5
418.712	1.53
419.065	1.52
419.419	1.54
419.772	1.44
420.126	1.62
420.479	1.7
420.832	1.64
421.185	1.64
421.539	1.57
421.892	1.53
422.245	1.57
422.598	1.54
422.951	1.57
423.304	1.59
423.657	1.58
424.01	1.56
424.363	1.6
424.715	1.54
425.068	1.52
425.421	1.5
425.773	1.49
426.126	1.52
426.479	1.52
426.831	1.46
427.184	1.38
427.536	1.38
427.889	1.38
428.241	1.36
428.593	1.44
428.945	1.4
429.298	1.39
429.65	1.43
430.002	1.43
430.354	1.49
430.706	1.49
431.058	1.47
431.41	1.43
431.762	1.35
432.114	1.34
432.466	1.36
432.817	1.38
433.169	1.53
433.521	1.55
433.872	1.62
434.224	1.65
434.576	1.65
434.927	1.55
435.279	1.51
435.63	1.53
435.981	1.66
436.333	1.7
436.684	1.75
437.035	1.75
437.387	1.64
437.738	1.61
438.089	1.62
438.44	1.58
438.791	1.5
439.142	1.47
439.493	1.52
439.844	1.54
440.195	1.62
440.545	1.67
440.896	1.71
441.247	1.66
441.598	1.61
441.948	1.51
442.299	1.51
442.649	1.52
443	1.47
443.35	1.45
443.701	1.49
444.051	1.53
444.401	1.53
444.752	1.48
445.102	1.38
445.452	1.31
445.802	1.31
446.152	1.37
446.502	1.34
446.852	1.22
447.202	1.21
447.552	1.24
447.902	1.25
448.252	1.13
448.602	1.65
448.952	1.59
449.301	1.55
449.651	1.54
450.001	1.55
450.35	1.55
450.7	1.55
451.049	1.55
451.399	1.5
451.748	1.55
452.097	1.63
452.447	1.58
452.796	1.61
453.145	1.75
453.494	1.75
453.843	1.83
454.193	1.89
454.542	1.87
454.891	1.93
455.239	1.87
455.588	1.95
455.937	1.98
456.286	1.95
456.635	1.9
456.984	1.94
457.332	1.32
457.681	1.3
458.03	1.37
458.378	1.24
458.727	1.22
459.075	1.19
459.423	1.24
459.772	1.17
460.12	1.11
460.468	1.11
460.817	1.09
461.165	1.15
461.513	1.06
461.861	0.94
462.209	0.96
462.557	1.05
462.905	1.02
463.253	1.06
463.601	1.07
463.949	1.1
464.297	1.09
464.644	1.19
464.992	1.22
465.34	1.3
465.687	1.4
466.035	1.37
466.383	1.38
466.73	1.34
467.078	1.49
467.425	1.49
467.772	1.66
468.12	1.67
468.467	1.74
468.814	1.88
469.161	2.01
469.508	2
469.856	2.02
470.203	2.04
470.55	2.03
470.897	2.03
471.243	1.91
471.59	2.02
471.937	1.99
472.284	1.92
472.631	1.93
472.977	1.97
473.324	1.99
473.671	1.93
474.017	1.92
474.364	1.83
474.71	1.91
475.057	1.9
475.403	1.94
475.749	1.92
476.096	1.96
476.442	1.87
476.788	1.82
477.134	1.86
477.48	1.82
477.826	1.72
478.172	1.68
478.518	1.65
478.864	1.7
479.21	1.78
479.556	1.72
479.902	1.82
480.248	1.76
480.593	1.67
480.939	1.65
481.285	1.65
481.63	1.62
481.976	1.59
482.321	1.64
482.667	1.68
483.012	1.7
483.357	1.7
483.703	1.75
484.048	1.81
484.393	1.86
484.738	1.84
485.084	1.83
485.429	1.86
485.774	1.83
486.119	1.84
486.464	1.89
486.808	1.96
487.153	2
487.498	1.99
487.843	1.9
488.188	2.03
488.532	2.09
488.877	2.13
489.222	2.26
489.566	2.4
489.911	2.55
490.255	2.57
490.6	2.62
490.944	2.72
491.288	2.79
491.633	2.96
491.977	2.99
492.321	3.15
492.665	3.16
493.009	3.26
493.353	3.48
493.697	3.68
494.041	3.79
494.385	3.98
494.729	4.15
495.073	4.36
495.417	4.55
495.76	4.75
496.104	4.98
496.448	5.29
496.791	5.54
497.135	5.72
497.479	6
497.822	6.31
498.165	6.6
498.509	6.92
498.852	7.31
499.196	7.7
499.539	8.09
499.882	8.45
500.225	8.87
500.568	9.29
500.911	9.61
501.254	10.1
501.597	10.48
501.94	10.88
502.283	11.27
502.626	11.82
502.969	12.26
503.312	12.68
503.654	13.12
503.997	13.48
504.34	13.94
504.682	14.45
505.025	14.85
505.367	15.32
505.71	15.75
506.052	16.15
506.395	16.64
506.737	17.06
507.079	17.56
507.421	18.08
507.764	18.5
508.106	18.92
508.448	19.44
508.79	19.8
509.132	20.24
509.474	20.67
509.816	21.05
510.158	21.51
510.499	21.97
510.841	22.43
511.183	22.77
511.525	23.22
511.866	23.71
512.208	24.04
512.549	24.58
512.891	25.02
513.232	25.47
513.574	25.99
513.915	26.29
514.256	26.83
514.598	27.38
514.939	27.78
515.28	28.2
515.621	28.55
515.962	28.84
516.303	29.3
516.644	29.68
516.985	30
517.326	30.43
517.667	30.9
518.008	31.3
518.349	31.66
518.69	32.04
519.03	32.38
519.371	32.77
519.712	33.07
520.052	33.39
520.393	33.47
520.733	33.87
521.074	34.16
521.414	34.49
521.754	34.81
522.095	35.03
522.435	35.29
522.775	35.54
523.115	35.72
523.455	35.94
523.795	36.14
524.135	36.34
524.475	36.69
524.815	36.89
525.155	37.18
525.495	37.29
525.835	37.48
526.175	37.6
526.514	37.76
526.854	38.01
527.194	38.19
527.533	38.36
527.873	38.48
528.212	38.71
528.552	38.89
528.891	39.19
529.23	39.31
529.57	39.49
529.909	39.75
530.248	39.71
530.587	39.99
530.927	40.26
531.266	40.22
531.605	40.44
531.944	40.53
532.283	40.67
532.621	40.68
532.96	40.78
533.299	40.92
533.638	41.07
533.977	41.24
534.315	41.34
534.654	41.51
534.992	41.69
535.331	41.63
535.67	41.78
536.008	41.82
536.346	41.93
536.685	41.89
537.023	41.85
537.361	42.05
537.7	42.17
538.038	42.11
538.376	42.01
538.714	42.19
539.052	42.22
539.39	42.35
539.728	42.48
540.066	42.4
540.404	42.49
540.741	42.65
541.079	42.84
541.417	42.82
541.755	42.89
542.092	42.83
542.43	42.87
542.767	42.97
543.105	42.81
543.442	42.95
543.78	43.01
544.117	43.07
544.454	43.22
544.792	43.26
545.129	43.41
545.466	43.69
545.803	43.67
546.14	43.65
546.477	43.75
546.814	43.95
547.151	43.86
547.488	43.9
547.825	43.79
548.162	43.86
548.499	44.07
548.835	44.13
549.172	44.16
549.509	44.2
549.845	44.3
550.182	44.27
550.518	44.31
550.855	44.36
551.191	44.33
551.528	44.53
551.864	44.45
552.2	44.57
552.537	44.56
552.873	44.59
553.209	44.63
553.545	44.64
553.881	44.47
554.217	44.48
554.553	44.61
554.889	44.8
555.225	44.71
555.561	44.86
555.896	44.87
556.232	45
556.568	45.2
556.903	45.03
557.239	45.06
557.575	45.11
557.91	45.15
558.245	45.18
558.581	45.24
558.916	45.33
559.252	45.5
559.587	45.65
559.922	45.65
560.257	45.63
560.592	45.65
560.928	45.74
561.263	45.7
561.598	45.8
561.933	45.96
562.267	46.23
562.602	46.34
562.937	46.6
563.272	46.52
563.607	46.62
563.941	46.88
564.276	46.92
564.611	46.89
564.945	46.91
565.28	47.18
565.614	47.24
565.949	47.25
566.283	47.24
566.617	47.31
566.951	47.55
567.286	47.7
567.62	47.54
567.954	47.44
568.288	47.53
568.622	47.52
568.956	47.51
569.29	47.55
569.624	47.6
569.958	47.6
570.292	47.58
570.626	47.59
570.959	47.74
571.293	47.7
571.627	47.8
571.96	47.79
572.294	47.67
572.627	47.62
572.961	47.66
573.294	47.6
573.627	47.62
573.961	47.64
574.294	47.71
574.627	47.85
574.961	47.95
575.294	47.77
575.627	47.84
575.96	47.96
576.293	47.92
576.626	47.79
576.959	47.91
577.292	48
577.624	47.95
577.957	47.99
578.29	48.08
578.623	48.05
578.955	48.05
579.288	48.01
579.62	47.95
579.953	47.94
580.285	47.98
580.618	48
580.95	48.16
581.282	48.19
581.615	48.26
581.947	48.23
582.279	48.24
582.611	48.18
582.943	48.06
583.275	47.94
583.607	48.08
583.939	47.96
584.271	47.9
584.603	48.12
584.935	48.16
585.267	48.07
585.598	48.11
585.93	48.19
586.262	48.12
586.593	48.08
586.925	48.23
587.256	48.07
587.588	48.01
587.919	48.08
588.25	48.04
588.582	48.09
588.913	48.19
589.244	48.12
589.575	48.2
589.907	48.26
590.238	48.26
590.569	48.37
590.9	48.47
591.231	48.56
591.562	48.53
591.892	48.49
592.223	48.51
592.554	48.71
592.885	48.63
593.215	48.74
593.546	48.68
593.877	48.57
594.207	48.48
594.538	48.54
594.868	48.58
595.198	48.45
595.529	48.51
595.859	48.44
596.189	48.49
596.52	48.54
596.85	48.5
597.18	48.41
597.51	48.48
597.84	48.47
598.17	48.38
598.5	48.41
598.83	48.36
599.16	48.41
599.489	48.58
599.819	48.71
600.149	48.67
600.479	48.63
600.808	48.48
601.138	48.34
601.467	48.21
601.797	48.35
602.126	48.33
602.456	48.47
602.785	48.54
603.114	48.51
603.443	48.62
603.773	48.73
604.102	48.77
604.431	48.73
604.76	48.74
605.089	48.64
605.418	48.67
605.747	48.65
606.076	48.65
606.405	48.66
606.733	48.6
607.062	48.64
607.391	48.54
607.72	48.32
608.048	48.17
608.377	48.2
608.705	48.38
609.034	48.39
609.362	48.48
609.69	48.64
610.019	48.51
610.347	48.72
610.675	48.62
611.004	48.55
611.332	48.62
611.66	48.63
611.988	48.57
612.316	48.61
612.644	48.63
612.972	48.75
613.3	48.97
613.627	48.97
613.955	48.82
614.283	48.52
614.611	48.49
614.938	48.66
615.266	48.53
615.593	48.56
615.921	48.53
616.248	48.52
616.576	48.52
616.903	48.33
617.23	48.28
617.558	48.42
617.885	48.5
618.212	48.38
618.539	48.21
618.866	48.05
619.193	47.9
619.52	47.66
619.847	47.73
620.174	47.65
620.501	47.6
620.828	47.44
621.155	47.41
621.481	46.98
621.808	47.21
622.135	47.47
622.461	47.53
622.788	47.62
623.114	47.34
623.441	46.94
623.767	46.67
624.093	46.72
624.42	46.96
624.746	47.12
625.072	47.21
625.398	47.48
625.725	47.43
626.051	47.4
626.377	47.85
626.703	47.79
627.029	48.14
627.354	48.01
627.68	47.97
628.006	47.84
628.332	48.07
628.658	48.21
628.983	48.49
629.309	48.21
629.634	48.57
629.96	48.22
630.285	48.14
630.611	48.35
630.936	48.59
631.262	49.04
631.587	49.66
631.912	50.24
632.237	50.94
632.562	51.03
632.887	51.21
633.213	50.87
633.538	50.85
633.863	50.83
634.187	50.72
634.512	50.56
634.837	50.56
635.162	50.39
635.487	50.42
635.811	50.63
636.136	50.79
636.461	50.8
636.785	50.76
637.11	50.6
637.434	50.77
637.758	50.54
638.083	50.47
638.407	50.19
638.731	50.09
639.056	49.83
639.38	50.01
639.704	50.26
640.028	50.28
640.352	49.83
640.676	49.74
641	49.14
641.324	49.21
641.648	48.74
641.972	48.97
642.295	48.86
642.619	48.71
642.943	48.31
643.266	48.28
643.59	48.67
643.913	48.22
644.237	48.2
644.56	47.57
644.884	47.8
645.207	47.95
645.53	47.82
645.854	48.17
646.177	48.13
646.5	47.94
646.823	48.25
647.146	48.39
647.469	47.48
647.792	47.08
648.115	46.9
648.438	46.67
648.761	48.33
649.084	48.89
649.406	49.05
649.729	48.45
650.052	48.12
650.374	47.89
650.697	47.87
651.019	48.04
651.342	48
651.664	48.11
651.987	48.26
652.309	48.23
652.631	48.39
652.953	48.41
653.276	48.21
653.598	48.16
653.92	48.2
654.242	48.29
654.564	48.45
654.886	48.29
655.208	48.34
655.53	48.47
655.851	48.4
656.173	48.61
656.495	48.7
656.816	47.95
657.138	47.74
657.46	47.19
657.781	47.46
658.103	47.76
658.424	48.29
658.746	48.24
659.067	48.18
659.388	48.45
659.709	47.54
660.031	47.29
660.352	47.01
660.673	45.84
660.994	45.66
661.315	46.33
661.636	46.87
661.957	46.6
662.278	47.15
662.599	46.77
662.919	46.5
663.24	46.46
663.561	46.88
663.881	47
