Data from T2_Reflection__109__20-05-50-135.txt Node

Date: Fri Jun 04 20:05:50 CEST 2021
User: mabdelazizm
Spectrometer: FLMS18565
Trigger mode: 0
Integration Time (sec): 2.000000E0
Scans to average: 1
Electric dark correction enabled: true
Nonlinearity correction enabled: false
Boxcar width: 12
XAxis mode: Wavelengths
Number of Pixels in Spectrum: 2048
>>>>>Begin Spectral Data<<<<<
179.071	0.43
179.452	-0.13
179.833	-93.28
180.214	-69.23
180.595	-102.42
180.977	-160.84
181.358	-123.73
181.739	-124.58
182.12	-59.26
182.501	-146.62
182.882	-153.21
183.262	-620
183.643	-120.02
184.024	-72.45
184.405	-40.73
184.786	-17.41
185.166	4.83
185.547	10.64
185.927	15.57
186.308	11.34
186.689	21.77
187.069	19.84
187.449	8.24
187.83	5.45
188.21	1.67
188.59	8.71
188.971	11.28
189.351	15.19
189.731	16.91
190.111	18.05
190.491	15.81
190.871	14.7
191.251	19.18
191.631	17.95
192.011	21.58
192.391	21.1
192.771	22.85
193.151	22.94
193.531	22.25
193.91	24.78
194.29	23.68
194.67	23.11
195.049	20.1
195.429	19.12
195.808	17.68
196.188	12.17
196.567	9.53
196.946	15.37
197.326	16.33
197.705	19.15
198.084	17.22
198.464	16.08
198.843	18.7
199.222	14.74
199.601	15.02
199.98	15.38
200.359	15.51
200.738	14.42
201.117	13.09
201.496	9.36
201.875	9.98
202.254	9.54
202.632	9.19
203.011	8.79
203.39	7.91
203.768	8.88
204.147	8.06
204.525	8.51
204.904	8.13
205.282	10.57
205.661	9.01
206.039	10.97
206.418	8.75
206.796	7.69
207.174	6.52
207.552	6.78
207.931	6.11
208.309	4.58
208.687	5.91
209.065	8.14
209.443	6.15
209.821	4.29
210.199	2.47
210.577	2.46
210.954	7.08
211.332	5.26
211.71	3.44
212.088	3.79
212.465	5.24
212.843	4.29
213.221	3.97
213.598	3.6
213.976	2.39
214.353	2.43
214.731	-0.33
215.108	2.73
215.485	2.46
215.863	3.07
216.24	1.83
216.617	2.13
216.994	1.85
217.371	1.84
217.749	1.3
218.126	1.64
218.503	-0.27
218.88	-0.22
219.256	-0.99
219.633	-0.29
220.01	-0.42
220.387	-1.18
220.764	-0.54
221.14	0.75
221.517	0.44
221.894	-0.6
222.27	-0.04
222.647	-0.74
223.023	-0.72
223.4	-0.86
223.776	-0.76
224.153	-1.39
224.529	-1.3
224.905	-0.44
225.282	-0.17
225.658	0.14
226.034	0.25
226.41	0.29
226.786	-0.02
227.162	0.43
227.538	0.36
227.914	0.48
228.29	0.49
228.666	0.58
229.042	0.67
229.418	0.82
229.793	0.62
230.169	0.69
230.545	0.52
230.92	0.53
231.296	0.81
231.672	0.63
232.047	0.77
232.422	0.86
232.798	1
233.173	0.94
233.549	1.1
233.924	1.11
234.299	0.98
234.674	0.89
235.05	0.85
235.425	0.86
235.8	0.8
236.175	0.9
236.55	0.83
236.925	0.86
237.3	0.88
237.675	0.98
238.049	0.97
238.424	0.88
238.799	0.95
239.174	1.02
239.548	0.98
239.923	0.99
240.297	0.96
240.672	0.92
241.046	1
241.421	1.01
241.795	0.95
242.17	0.87
242.544	0.96
242.918	0.93
243.293	0.86
243.667	0.83
244.041	0.92
244.415	0.93
244.789	0.89
245.163	0.89
245.537	0.88
245.911	0.89
246.285	0.85
246.659	0.89
247.033	0.9
247.406	0.98
247.78	1.03
248.154	0.95
248.528	1.02
248.901	1.02
249.275	1.03
249.648	1.08
250.022	1.08
250.395	1.04
250.769	1.01
251.142	1.06
251.515	1.12
251.888	1.05
252.262	1.1
252.635	1.12
253.008	1.1
253.381	1.04
253.754	1.08
254.127	1.13
254.5	1.17
254.873	1.18
255.246	1.13
255.619	1.18
255.992	1.19
256.364	1.17
256.737	1.17
257.11	1.19
257.483	1.21
257.855	1.18
258.228	1.23
258.6	1.21
258.973	1.25
259.345	1.26
259.718	1.24
260.09	1.25
260.462	1.24
260.834	1.22
261.207	1.23
261.579	1.23
261.951	1.29
262.323	1.31
262.695	1.3
263.067	1.3
263.439	1.33
263.811	1.32
264.183	1.33
264.555	1.38
264.927	1.37
265.298	1.32
265.67	1.27
266.042	1.24
266.413	1.18
266.785	1.18
267.156	1.12
267.528	1.09
267.899	1.11
268.271	1.08
268.642	1.02
269.013	1.01
269.385	1.01
269.756	1
270.127	0.95
270.498	0.96
270.87	0.95
271.241	0.89
271.612	0.83
271.983	0.84
272.354	0.76
272.724	0.7
273.095	0.71
273.466	0.65
273.837	0.65
274.208	0.64
274.578	0.62
274.949	0.64
275.32	0.67
275.69	0.66
276.061	0.65
276.431	0.64
276.802	0.58
277.172	0.6
277.542	0.58
277.913	0.62
278.283	0.63
278.653	0.62
279.023	0.59
279.394	0.66
279.764	0.67
280.134	0.68
280.504	0.63
280.874	0.68
281.244	0.68
281.614	0.7
281.983	0.65
282.353	0.68
282.723	0.78
283.093	0.83
283.462	0.83
283.832	0.84
284.202	0.88
284.571	0.82
284.941	0.85
285.31	0.94
285.68	0.96
286.049	0.95
286.418	0.91
286.788	0.96
287.157	0.95
287.526	0.96
287.895	0.98
288.264	1.05
288.633	1.01
289.002	0.95
289.371	0.98
289.74	0.97
290.109	0.94
290.478	0.92
290.847	0.93
291.216	0.96
291.585	0.91
291.953	0.81
292.322	0.75
292.691	0.71
293.059	0.69
293.428	0.68
293.796	0.71
294.165	0.7
294.533	0.59
294.901	0.62
295.27	0.66
295.638	0.64
296.006	0.58
296.374	0.51
296.743	0.49
297.111	0.48
297.479	0.46
297.847	0.47
298.215	0.5
298.583	0.45
298.95	0.5
299.318	0.52
299.686	0.52
300.054	0.52
300.422	0.55
300.789	0.51
301.157	0.54
301.525	0.51
301.892	0.51
302.26	0.49
302.627	0.5
302.994	0.45
303.362	0.42
303.729	0.47
304.097	0.41
304.464	0.39
304.831	0.42
305.198	0.42
305.565	0.48
305.932	0.47
306.299	0.42
306.666	0.35
307.033	0.35
307.4	0.33
307.767	0.27
308.134	0.26
308.501	0.27
308.867	0.27
309.234	0.3
309.601	0.27
309.967	0.27
310.334	0.27
310.701	0.29
311.067	0.28
311.433	0.42
311.8	0.37
312.166	0.42
312.533	0.41
312.899	0.41
313.265	0.44
313.631	0.51
313.997	0.53
314.363	0.51
314.729	0.49
315.096	0.48
315.461	0.52
315.827	0.55
316.193	0.54
316.559	0.58
316.925	0.62
317.291	0.63
317.656	0.63
318.022	0.63
318.388	0.69
318.753	0.7
319.119	0.7
319.484	0.74
319.85	0.75
320.215	0.73
320.581	0.62
320.946	0.66
321.311	0.65
321.676	0.65
322.042	0.61
322.407	0.56
322.772	0.54
323.137	0.49
323.502	0.54
323.867	0.55
324.232	0.51
324.597	0.5
324.962	0.51
325.327	0.5
325.691	0.48
326.056	0.47
326.421	0.49
326.785	0.45
327.15	0.44
327.514	0.33
327.879	0.29
328.243	0.32
328.608	0.28
328.972	0.27
329.337	0.27
329.701	0.3
330.065	0.28
330.429	0.29
330.794	0.3
331.158	0.35
331.522	0.36
331.886	0.29
332.25	0.26
332.614	0.22
332.978	0.19
333.342	0.26
333.705	0.24
334.069	0.19
334.433	0.19
334.797	0.21
335.16	0.2
335.524	0.19
335.887	0.22
336.251	0.23
336.614	0.26
336.978	0.31
337.341	0.27
337.705	0.22
338.068	0.31
338.431	0.31
338.794	0.25
339.158	0.22
339.521	0.21
339.884	0.18
340.247	0.2
340.61	0.22
340.973	0.29
341.336	0.33
341.699	0.29
342.062	0.28
342.424	0.24
342.787	0.26
343.15	0.28
343.512	0.3
343.875	0.3
344.238	0.37
344.6	0.29
344.963	0.31
345.325	0.3
345.688	0.23
346.05	0.19
346.412	0.24
346.775	0.26
347.137	0.16
347.499	0.17
347.861	0.23
348.223	0.22
348.585	0.18
348.947	0.15
349.309	0.08
349.671	0.13
350.033	0.09
350.395	0.09
350.757	0.09
351.118	0.08
351.48	0.06
351.842	0.08
352.203	0.13
352.565	0.09
352.927	0.07
353.288	-0.02
353.65	0
354.011	-0.02
354.372	0.03
354.734	0.1
355.095	0.12
355.456	0.09
355.817	0.12
356.179	0.09
356.54	0.11
356.901	0.04
357.262	0.02
357.623	0.02
357.984	0.12
358.345	0.18
358.705	0.12
359.066	0.12
359.427	0.11
359.788	0.15
360.148	0.23
360.509	0.25
360.87	0.24
361.23	0.22
361.591	0.32
361.951	0.25
362.312	0.27
362.672	0.3
363.032	0.31
363.393	0.29
363.753	0.23
364.113	0.17
364.473	0.16
364.833	0.2
365.193	0.22
365.553	0.22
365.913	0.17
366.273	0.18
366.633	0.21
366.993	0.12
367.353	0.06
367.713	0.08
368.072	0
368.432	0.01
368.792	-0.04
369.151	-0.12
369.511	-0.1
369.87	-0.16
370.23	-0.09
370.589	-0.15
370.949	-0.07
371.308	-0.09
371.667	-0.13
372.027	-0.16
372.386	-0.2
372.745	-0.12
373.104	-0.06
373.463	0
373.822	-0.02
374.181	-0.03
374.54	0.01
374.899	0.07
375.258	0.01
375.617	0.05
375.975	0.1
376.334	0.09
376.693	0.16
377.052	0.24
377.41	0.24
377.769	0.28
378.127	0.29
378.486	0.26
378.844	0.29
379.202	0.2
379.561	0.12
379.919	0.11
380.277	0.15
380.636	0.16
380.994	0.14
381.352	0.11
381.71	0.01
382.068	0
382.426	-0.04
382.784	-0.1
383.142	-0.1
383.5	-0.12
383.857	-0.1
384.215	-0.02
384.573	-0.13
384.931	-0.09
385.288	-0.12
385.646	-0.2
386.003	-0.25
386.361	-0.26
386.718	-0.25
387.076	-0.27
387.433	-0.29
387.791	-0.31
388.148	-0.29
388.505	-0.27
388.862	-0.27
389.22	-0.28
389.577	-0.25
389.934	-0.22
390.291	-0.17
390.648	-0.11
391.005	-0.1
391.362	-0.12
391.718	-0.09
392.075	-0.14
392.432	-0.12
392.789	-0.13
393.145	-0.13
393.502	-0.06
393.859	-0.04
394.215	0.03
394.572	-0.02
394.928	-0.03
395.285	-0.05
395.641	-0.02
395.997	-0.03
396.354	-0
396.71	0.02
397.066	0.02
397.422	0.1
397.778	0.03
398.134	0.1
398.491	0.04
398.846	-0.01
399.202	0
399.558	-0.06
399.914	-0.04
400.27	-0.03
400.626	-0.08
400.981	-0.06
401.337	-0.08
401.693	-0.06
402.048	-0.09
402.404	-0.07
402.759	-0.11
403.115	-0.1
403.47	-0.06
403.826	-0
404.181	-0.02
404.536	-0.11
404.892	-0.1
405.247	-0.15
405.602	-0.18
405.957	-0.16
406.312	-0.22
406.667	-0.17
407.022	-0.2
407.377	-0.14
407.732	-0.08
408.087	-0.1
408.442	-0.12
408.796	-0.17
409.151	-0.15
409.506	-0.06
409.86	-0.02
410.215	-0.05
410.57	-0.14
410.924	-0.1
411.279	-0.09
411.633	-0.11
411.987	-0.1
412.342	-0.06
412.696	-0.1
413.05	-0.03
413.404	0.06
413.758	0.1
414.113	0.18
414.467	0.23
414.821	0.17
415.175	0.22
415.529	0.14
415.882	0.06
416.236	0.09
416.59	0.04
416.944	0.01
417.298	0.17
417.651	0.19
418.005	0.2
418.358	0.21
418.712	0.23
419.065	0.25
419.419	0.3
419.772	0.29
420.126	0.38
420.479	0.47
420.832	0.39
421.185	0.42
421.539	0.43
421.892	0.45
422.245	0.47
422.598	0.5
422.951	0.55
423.304	0.54
423.657	0.59
424.01	0.6
424.363	0.67
424.715	0.79
425.068	0.71
425.421	0.76
425.773	0.76
426.126	0.84
426.479	0.84
426.831	0.86
427.184	0.8
427.536	0.83
427.889	0.78
428.241	0.86
428.593	0.91
428.945	0.86
429.298	0.85
429.65	0.84
430.002	0.83
430.354	0.87
430.706	0.84
431.058	0.79
431.41	0.72
431.762	0.59
432.114	0.58
432.466	0.65
432.817	0.61
433.169	0.64
433.521	0.58
433.872	0.65
434.224	0.62
434.576	0.59
434.927	0.49
435.279	0.42
435.63	0.38
435.981	0.4
436.333	0.41
436.684	0.51
437.035	0.44
437.387	0.4
437.738	0.39
438.089	0.32
438.44	0.36
438.791	0.29
439.142	0.27
439.493	0.34
439.844	0.4
440.195	0.47
440.545	0.57
440.896	0.64
441.247	0.56
441.598	0.63
441.948	0.63
442.299	0.63
442.649	0.67
443	0.69
443.35	0.74
443.701	0.74
444.051	0.79
444.401	0.76
444.752	0.86
445.102	0.77
445.452	0.76
445.802	0.75
446.152	0.7
446.502	0.68
446.852	0.67
447.202	0.71
447.552	0.71
447.902	0.67
448.252	0.56
448.602	1.05
448.952	1.08
449.301	1.03
449.651	1.02
450.001	1.02
450.35	0.97
450.7	0.99
451.049	1.01
451.399	1.06
451.748	1.07
452.097	1.22
452.447	1.08
452.796	1.16
453.145	1.23
453.494	1.11
453.843	1.13
454.193	1.18
454.542	1.2
454.891	1.29
455.239	1.21
455.588	1.28
455.937	1.22
456.286	1.29
456.635	1.25
456.984	1.28
457.332	0.7
457.681	0.66
458.03	0.68
458.378	0.62
458.727	0.59
459.075	0.57
459.423	0.74
459.772	0.73
460.12	0.55
460.468	0.62
460.817	0.58
461.165	0.73
461.513	0.7
461.861	0.76
462.209	0.88
462.557	1.02
462.905	0.88
463.253	0.91
463.601	0.96
463.949	1.04
464.297	1.02
464.644	1.14
464.992	1.13
465.34	1.25
465.687	1.29
466.035	1.15
466.383	1.21
466.73	1.2
467.078	1.25
467.425	1.28
467.772	1.37
468.12	1.23
468.467	1.21
468.814	1.35
469.161	1.31
469.508	1.33
469.856	1.28
470.203	1.22
470.55	1.14
470.897	1.11
471.243	1.02
471.59	1.11
471.937	1.13
472.284	1.14
472.631	1.1
472.977	1.11
473.324	1.07
473.671	0.98
474.017	0.94
474.364	0.9
474.71	1.04
475.057	0.93
475.403	0.99
475.749	1.03
476.096	1.06
476.442	1.04
476.788	1.03
477.134	1.1
477.48	1.1
477.826	1.09
478.172	1.01
478.518	1.03
478.864	1.13
479.21	1.23
479.556	1.2
479.902	1.24
480.248	1.25
480.593	1.16
480.939	1.03
481.285	1.05
481.63	1.05
481.976	1.07
482.321	1.13
482.667	1.19
483.012	1.2
483.357	1.25
483.703	1.35
484.048	1.47
484.393	1.51
484.738	1.54
485.084	1.51
485.429	1.56
485.774	1.57
486.119	1.61
486.464	1.7
486.808	1.81
487.153	1.88
487.498	2
487.843	1.99
488.188	2.13
488.532	2.28
488.877	2.47
489.222	2.74
489.566	3.07
489.911	3.4
490.255	3.65
490.6	3.87
490.944	4.17
491.288	4.4
491.633	4.76
491.977	4.94
492.321	5.3
492.665	5.54
493.009	5.88
493.353	6.3
493.697	6.78
494.041	7.16
494.385	7.6
494.729	8.05
495.073	8.54
495.417	9.04
495.76	9.5
496.104	10
496.448	10.61
496.791	11.18
497.135	11.73
497.479	12.24
497.822	12.78
498.165	13.38
498.509	13.96
498.852	14.6
499.196	15.32
499.539	15.93
499.882	16.6
500.225	17.26
500.568	18.05
500.911	18.66
501.254	19.34
501.597	20.01
501.94	20.73
502.283	21.29
502.626	22.04
502.969	22.72
503.312	23.43
503.654	24.11
503.997	24.73
504.34	25.46
504.682	26.11
505.025	26.73
505.367	27.46
505.71	28.06
506.052	28.77
506.395	29.51
506.737	30.16
507.079	30.89
507.421	31.54
507.764	32.15
508.106	32.78
508.448	33.44
508.79	34.12
509.132	34.66
509.474	35.24
509.816	35.68
510.158	36.29
510.499	36.75
510.841	37.38
511.183	37.89
511.525	38.46
511.866	39.04
512.208	39.43
512.549	39.93
512.891	40.5
513.232	41.05
513.574	41.6
513.915	42.02
514.256	42.59
514.598	43.09
514.939	43.57
515.28	43.89
515.621	44.22
515.962	44.64
516.303	45.05
516.644	45.44
516.985	45.76
517.326	46.08
517.667	46.51
518.008	46.85
518.349	47.49
518.69	47.87
519.03	48.23
519.371	48.64
519.712	48.89
520.052	49.18
520.393	49.35
520.733	49.82
521.074	50.19
521.414	50.49
521.754	50.76
522.095	51.03
522.435	51.39
522.775	51.58
523.115	51.89
523.455	51.92
523.795	52.36
524.135	52.62
524.475	52.76
524.815	53.03
525.155	53.39
525.495	53.69
525.835	53.91
526.175	54.11
526.514	54.39
526.854	54.39
527.194	54.49
527.533	54.72
527.873	54.73
528.212	55
528.552	55.29
528.891	55.47
529.23	55.52
529.57	55.72
529.909	55.92
530.248	55.83
530.587	56.08
530.927	56.12
531.266	56.26
531.605	56.29
531.944	56.42
532.283	56.39
532.621	56.46
532.96	56.79
533.299	56.94
533.638	57.13
533.977	57.16
534.315	57.38
534.654	57.43
534.992	57.49
535.331	57.59
535.67	57.72
536.008	57.76
536.346	57.96
536.685	57.9
537.023	57.76
537.361	58.06
537.7	58.22
538.038	58.24
538.376	58.27
538.714	58.66
539.052	58.55
539.39	58.67
539.728	58.7
540.066	58.69
540.404	58.98
540.741	59.15
541.079	59.2
541.417	59.18
541.755	59.25
542.092	59.17
542.43	59.17
542.767	59.17
543.105	59.09
543.442	59.26
543.78	59.38
544.117	59.41
544.454	59.61
544.792	59.66
545.129	59.89
545.466	60.09
545.803	59.83
546.14	59.92
546.477	60.02
546.814	60.03
547.151	59.86
547.488	60.03
547.825	59.96
548.162	60.12
548.499	60.31
548.835	60.35
549.172	60.4
549.509	60.41
549.845	60.49
550.182	60.35
550.518	60.35
550.855	60.64
551.191	60.55
551.528	60.78
551.864	60.78
552.2	60.86
552.537	60.86
552.873	60.8
553.209	60.91
553.545	60.85
553.881	60.8
554.217	60.97
554.553	61.1
554.889	61.14
555.225	61.19
555.561	61.27
555.896	61.32
556.232	61.4
556.568	61.42
556.903	61.48
557.239	61.5
557.575	61.62
557.91	61.72
558.245	61.61
558.581	61.84
558.916	61.99
559.252	61.92
559.587	62.02
559.922	61.94
560.257	62.04
560.592	62.14
560.928	62.14
561.263	62.25
561.598	62.32
561.933	62.51
562.267	62.66
562.602	62.55
562.937	62.64
563.272	62.78
563.607	62.78
563.941	63.11
564.276	63.33
564.611	63.49
564.945	63.59
565.28	63.63
565.614	63.5
565.949	63.38
566.283	63.27
566.617	63.43
566.951	63.56
567.286	63.62
567.62	63.59
567.954	63.72
568.288	63.92
568.622	63.79
568.956	63.78
569.29	63.92
569.624	63.79
569.958	63.74
570.292	63.72
570.626	63.73
570.959	64
571.293	63.94
571.627	63.92
571.96	63.97
572.294	63.9
572.627	63.83
572.961	63.81
573.294	63.85
573.627	63.94
573.961	64.06
574.294	64.13
574.627	64.4
574.961	64.56
575.294	64.53
575.627	64.59
575.96	64.65
576.293	64.42
576.626	64.34
576.959	64.51
577.292	64.54
577.624	64.52
577.957	64.7
578.29	64.78
578.623	64.78
578.955	64.82
579.288	64.76
579.62	64.76
579.953	64.65
580.285	64.67
580.618	64.72
580.95	64.72
581.282	64.73
581.615	64.7
581.947	64.63
582.279	64.68
582.611	64.64
582.943	64.53
583.275	64.44
583.607	64.5
583.939	64.38
584.271	64.25
584.603	64.48
584.935	64.56
585.267	64.48
585.598	64.51
585.93	64.6
586.262	64.59
586.593	64.54
586.925	64.61
587.256	64.7
587.588	64.56
587.919	64.53
588.25	64.75
588.582	64.89
588.913	64.93
589.244	64.89
589.575	64.99
589.907	65.08
590.238	65.13
590.569	65.18
590.9	65.43
591.231	65.43
591.562	65.37
591.892	65.18
592.223	65.32
592.554	65.59
592.885	65.64
593.215	65.6
593.546	65.4
593.877	65.22
594.207	65.17
594.538	65.16
594.868	65.22
595.198	65.21
595.529	65.12
595.859	65.08
596.189	65.28
596.52	65.24
596.85	65.33
597.18	65.26
597.51	65.37
597.84	65.25
598.17	65.21
598.5	65.18
598.83	65.11
599.16	65.15
599.489	65.27
599.819	65.24
600.149	65.39
600.479	65.26
600.808	65.01
601.138	64.94
601.467	64.84
601.797	65.1
602.126	65.17
602.456	65.2
602.785	65.25
603.114	65.23
603.443	65.27
603.773	65.37
604.102	65.49
604.431	65.48
604.76	65.47
605.089	65.21
605.418	65.24
605.747	65.07
606.076	65.1
606.405	64.91
606.733	64.95
607.062	65.02
607.391	64.83
607.72	64.6
608.048	64.76
608.377	64.56
608.705	64.73
609.034	64.78
609.362	64.79
609.69	65.07
610.019	65.04
610.347	65.09
610.675	65.13
611.004	65.11
611.332	65.31
611.66	65.18
611.988	64.95
612.316	65.03
612.644	64.81
612.972	64.75
613.3	64.91
613.627	64.83
613.955	64.97
614.283	64.91
614.611	65.06
614.938	65.23
615.266	65.19
615.593	65.28
615.921	65.3
616.248	65.18
616.576	65.14
616.903	65.06
617.23	65.13
617.558	64.94
617.885	64.68
618.212	64.58
618.539	64.75
618.866	64.55
619.193	64.49
619.52	64.19
619.847	64.43
620.174	64.56
620.501	64.54
620.828	64.6
621.155	64.85
621.481	64.56
621.808	64.75
622.135	64.85
622.461	64.59
622.788	64.71
623.114	64.15
623.441	63.67
623.767	63.69
624.093	63.76
624.42	63.68
624.746	64.11
625.072	64.17
625.398	64.45
625.725	64.91
626.051	65.05
626.377	65.21
626.703	65.05
627.029	65.05
627.354	64.77
627.68	64.81
628.006	64.82
628.332	65.04
628.658	65
628.983	65.01
629.309	64.76
629.634	64.89
629.96	64.61
630.285	64.31
630.611	64.77
630.936	64.93
631.262	65.58
631.587	66.05
631.912	65.91
632.237	66.16
632.562	67.13
632.887	66.82
633.213	66.42
633.538	66.43
633.863	66.23
634.187	65.94
634.512	65.94
634.837	66.07
635.162	66.14
635.487	66.23
635.811	66.16
636.136	66.34
636.461	66.4
636.785	66.15
637.11	66.54
637.434	66.93
637.758	66.9
638.083	67.1
638.407	67.05
638.731	67.22
639.056	67.18
639.38	66.99
639.704	67.48
640.028	67.77
640.352	68.06
640.676	67.47
641	67.55
641.324	67.47
641.648	67.04
641.972	67.07
642.295	66.49
642.619	66.61
642.943	66.28
643.266	66.33
643.59	66.69
643.913	66.39
644.237	65.93
644.56	65.18
644.884	65.66
645.207	65.52
645.53	65.02
645.854	64.9
646.177	65
646.5	64.92
646.823	65.21
647.146	64.88
647.469	64.81
647.792	64.07
648.115	64.02
648.438	63.92
648.761	65.92
649.084	66.52
649.406	66.81
649.729	65.83
650.052	65.46
650.374	65.44
650.697	65.29
651.019	65.3
651.342	65.11
651.664	65.13
651.987	65.15
652.309	65.24
652.631	65.36
652.953	65.5
653.276	65.22
653.598	65.24
653.92	65.36
654.242	65.38
654.564	65.69
654.886	65.62
655.208	65.75
655.53	65.69
655.851	65.83
656.173	65.9
656.495	65.87
656.816	64.81
657.138	64.3
657.46	63.39
657.781	64.08
658.103	64.26
658.424	64.88
658.746	64.46
659.067	64.65
659.388	65.1
659.709	64.69
660.031	65.05
660.352	64.63
660.673	64
660.994	63.17
661.315	64.29
661.636	65.06
661.957	64.55
662.278	64.54
