Data from T2_Reflection__54__19-26-08-213.txt Node

Date: Fri Jun 04 19:26:08 CEST 2021
User: mabdelazizm
Spectrometer: FLMS18565
Trigger mode: 0
Integration Time (sec): 2.000000E0
Scans to average: 1
Electric dark correction enabled: true
Nonlinearity correction enabled: false
Boxcar width: 12
XAxis mode: Wavelengths
Number of Pixels in Spectrum: 2048
>>>>>Begin Spectral Data<<<<<
179.071	-122.34
179.452	-84.14
179.833	-223.65
180.214	-259.62
180.595	-249.55
180.977	-438.4
181.358	-342.58
181.739	-329.05
182.12	-181.69
182.501	-239.39
182.882	-276.2
183.262	-1162.86
183.643	-174.75
184.024	-134.44
184.405	-72.79
184.786	-46.92
185.166	-64.59
185.547	-33.43
185.927	-17.76
186.308	-19.39
186.689	3.54
187.069	-5.31
187.449	-9.18
187.83	-15.26
188.21	-15.28
188.59	-9.91
188.971	-6.38
189.351	-2.84
189.731	-3.99
190.111	-5.06
190.491	-5.49
190.871	-7.87
191.251	-3.78
191.631	-5.64
192.011	-2.62
192.391	-0.01
192.771	3.44
193.151	-1.96
193.531	-1.15
193.91	-1.16
194.29	-1.61
194.67	0.45
195.049	-1.41
195.429	-4.04
195.808	-7.08
196.188	-9.84
196.567	-8.8
196.946	-4.87
197.326	-3.28
197.705	-2.5
198.084	-4.73
198.464	-4.99
198.843	-4.5
199.222	-3.31
199.601	-2.16
199.98	-1.65
200.359	-2.45
200.738	-2.31
201.117	-5.6
201.496	-9.72
201.875	-9.81
202.254	-8.25
202.632	-10.12
203.011	-8.5
203.39	-6.15
203.768	-5.69
204.147	-3.9
204.525	-5.32
204.904	-7.27
205.282	-4.95
205.661	-8.21
206.039	-7.92
206.418	-10.91
206.796	-8.65
207.174	-8.89
207.552	-8.69
207.931	-11.56
208.309	-11.13
208.687	-10.06
209.065	-9.12
209.443	-10.28
209.821	-10.85
210.199	-12.09
210.577	-10.1
210.954	-8.03
211.332	-8.27
211.71	-10.52
212.088	-8.46
212.465	-8.98
212.843	-9.39
213.221	-7.55
213.598	-8.42
213.976	-9.32
214.353	-7.47
214.731	-8.25
215.108	-7.08
215.485	-5.76
215.863	-5.43
216.24	-7.92
216.617	-7.28
216.994	-7.1
217.371	-6.19
217.749	-7.52
218.126	-7.05
218.503	-6.56
218.88	-6.29
219.256	-5.46
219.633	-4.21
220.01	-3.97
220.387	-3.07
220.764	-3.09
221.14	-1.23
221.517	-0.9
221.894	-0.67
222.27	-0.71
222.647	-1.19
223.023	-0.72
223.4	-0.2
223.776	0.1
224.153	-0.05
224.529	0.42
224.905	0.84
225.282	0.98
225.658	1.03
226.034	0.89
226.41	0.85
226.786	0.84
227.162	1.27
227.538	0.91
227.914	0.65
228.29	0.71
228.666	0.85
229.042	0.62
229.418	0.74
229.793	0.46
230.169	0.37
230.545	0.08
230.92	-0.02
231.296	0.02
231.672	-0.14
232.047	-0.12
232.422	-0.25
232.798	-0.19
233.173	-0.23
233.549	-0.07
233.924	0.14
234.299	0.15
234.674	0.18
235.05	0.25
235.425	0.24
235.8	0.33
236.175	0.54
236.55	0.48
236.925	0.47
237.3	0.57
237.675	0.66
238.049	0.6
238.424	0.56
238.799	0.63
239.174	0.77
239.548	0.93
239.923	0.95
240.297	0.9
240.672	0.95
241.046	1.01
241.421	1.07
241.795	1.13
242.17	1.13
242.544	1.18
242.918	1.15
243.293	1.11
243.667	1.02
244.041	1.11
244.415	1.1
244.789	1.13
245.163	1.16
245.537	1.08
245.911	1.13
246.285	1.18
246.659	1.19
247.033	1.24
247.406	1.33
247.78	1.36
248.154	1.27
248.528	1.27
248.901	1.18
249.275	1.2
249.648	1.31
250.022	1.28
250.395	1.26
250.769	1.23
251.142	1.25
251.515	1.28
251.888	1.25
252.262	1.3
252.635	1.28
253.008	1.33
253.381	1.29
253.754	1.33
254.127	1.36
254.5	1.33
254.873	1.36
255.246	1.34
255.619	1.36
255.992	1.37
256.364	1.3
256.737	1.26
257.11	1.27
257.483	1.33
257.855	1.4
258.228	1.43
258.6	1.4
258.973	1.4
259.345	1.44
259.718	1.43
260.09	1.45
260.462	1.36
260.834	1.35
261.207	1.37
261.579	1.29
261.951	1.3
262.323	1.25
262.695	1.27
263.067	1.26
263.439	1.29
263.811	1.31
264.183	1.31
264.555	1.33
264.927	1.33
265.298	1.32
265.67	1.3
266.042	1.27
266.413	1.28
266.785	1.28
267.156	1.23
267.528	1.23
267.899	1.24
268.271	1.21
268.642	1.13
269.013	1.2
269.385	1.22
269.756	1.29
270.127	1.24
270.498	1.22
270.87	1.25
271.241	1.29
271.612	1.3
271.983	1.29
272.354	1.27
272.724	1.22
273.095	1.27
273.466	1.24
273.837	1.24
274.208	1.26
274.578	1.2
274.949	1.26
275.32	1.25
275.69	1.22
276.061	1.17
276.431	1.13
276.802	1.11
277.172	1.13
277.542	1.11
277.913	1.16
278.283	1.12
278.653	1.09
279.023	1.07
279.394	1.14
279.764	1.18
280.134	1.16
280.504	1.11
280.874	1.12
281.244	1.12
281.614	1.12
281.983	1.08
282.353	1.05
282.723	1.06
283.093	1.04
283.462	1.02
283.832	1.07
284.202	1.07
284.571	1.07
284.941	1.09
285.31	1.15
285.68	1.19
286.049	1.18
286.418	1.15
286.788	1.22
287.157	1.23
287.526	1.22
287.895	1.23
288.264	1.22
288.633	1.14
289.002	1.04
289.371	1.1
289.74	1.09
290.109	1.07
290.478	1.01
290.847	1.02
291.216	1.05
291.585	1.01
291.953	0.98
292.322	0.99
292.691	0.97
293.059	0.87
293.428	0.87
293.796	0.92
294.165	0.89
294.533	0.87
294.901	0.87
295.27	0.9
295.638	0.87
296.006	0.81
296.374	0.79
296.743	0.78
297.111	0.76
297.479	0.77
297.847	0.82
298.215	0.87
298.583	0.8
298.95	0.83
299.318	0.89
299.686	0.89
300.054	0.89
300.422	0.89
300.789	0.86
301.157	0.86
301.525	0.85
301.892	0.85
302.26	0.94
302.627	0.94
302.994	0.89
303.362	0.94
303.729	0.91
304.097	0.87
304.464	0.86
304.831	0.86
305.198	0.87
305.565	0.87
305.932	0.86
306.299	0.83
306.666	0.82
307.033	0.78
307.4	0.82
307.767	0.78
308.134	0.73
308.501	0.71
308.867	0.74
309.234	0.73
309.601	0.75
309.967	0.74
310.334	0.78
310.701	0.79
311.067	0.76
311.433	0.77
311.8	0.71
312.166	0.74
312.533	0.7
312.899	0.71
313.265	0.78
313.631	0.82
313.997	0.84
314.363	0.82
314.729	0.79
315.096	0.76
315.461	0.75
315.827	0.79
316.193	0.83
316.559	0.88
316.925	0.92
317.291	0.97
317.656	0.95
318.022	0.91
318.388	0.93
318.753	0.87
319.119	0.88
319.484	0.88
319.85	0.88
320.215	0.83
320.581	0.77
320.946	0.8
321.311	0.77
321.676	0.78
322.042	0.76
322.407	0.67
322.772	0.68
323.137	0.66
323.502	0.7
323.867	0.76
324.232	0.72
324.597	0.7
324.962	0.7
325.327	0.71
325.691	0.68
326.056	0.67
326.421	0.66
326.785	0.64
327.15	0.66
327.514	0.61
327.879	0.66
328.243	0.69
328.608	0.66
328.972	0.67
329.337	0.69
329.701	0.73
330.065	0.71
330.429	0.73
330.794	0.76
331.158	0.81
331.522	0.82
331.886	0.73
332.25	0.74
332.614	0.7
332.978	0.68
333.342	0.73
333.705	0.77
334.069	0.71
334.433	0.66
334.797	0.65
335.16	0.64
335.524	0.69
335.887	0.72
336.251	0.73
336.614	0.74
336.978	0.76
337.341	0.73
337.705	0.7
338.068	0.78
338.431	0.81
338.794	0.83
339.158	0.84
339.521	0.78
339.884	0.72
340.247	0.65
340.61	0.66
340.973	0.65
341.336	0.65
341.699	0.63
342.062	0.62
342.424	0.6
342.787	0.56
343.15	0.6
343.512	0.61
343.875	0.57
344.238	0.6
344.6	0.5
344.963	0.44
345.325	0.41
345.688	0.37
346.05	0.34
346.412	0.38
346.775	0.37
347.137	0.27
347.499	0.26
347.861	0.32
348.223	0.34
348.585	0.35
348.947	0.39
349.309	0.38
349.671	0.4
350.033	0.39
350.395	0.36
350.757	0.34
351.118	0.29
351.48	0.29
351.842	0.31
352.203	0.28
352.565	0.24
352.927	0.27
353.288	0.24
353.65	0.25
354.011	0.26
354.372	0.32
354.734	0.34
355.095	0.33
355.456	0.3
355.817	0.3
356.179	0.31
356.54	0.33
356.901	0.21
357.262	0.17
357.623	0.11
357.984	0.12
358.345	0.17
358.705	0.14
359.066	0.13
359.427	0.19
359.788	0.25
360.148	0.31
360.509	0.35
360.87	0.37
361.23	0.39
361.591	0.44
361.951	0.36
362.312	0.36
362.672	0.36
363.032	0.37
363.393	0.36
363.753	0.34
364.113	0.32
364.473	0.31
364.833	0.33
365.193	0.33
365.553	0.34
365.913	0.33
366.273	0.32
366.633	0.41
366.993	0.33
367.353	0.31
367.713	0.32
368.072	0.25
368.432	0.25
368.792	0.13
369.151	0.08
369.511	0.14
369.87	0.08
370.23	0.14
370.589	0.16
370.949	0.17
371.308	0.14
371.667	0.12
372.027	0.08
372.386	0.14
372.745	0.17
373.104	0.2
373.463	0.27
373.822	0.23
374.181	0.19
374.54	0.17
374.899	0.24
375.258	0.22
375.617	0.18
375.975	0.28
376.334	0.22
376.693	0.3
377.052	0.37
377.41	0.32
377.769	0.41
378.127	0.47
378.486	0.37
378.844	0.37
379.202	0.33
379.561	0.24
379.919	0.24
380.277	0.26
380.636	0.31
380.994	0.31
381.352	0.25
381.71	0.22
382.068	0.25
382.426	0.15
382.784	0.19
383.142	0.18
383.5	0.21
383.857	0.19
384.215	0.24
384.573	0.21
384.931	0.19
385.288	0.19
385.646	0.09
386.003	0.1
386.361	0.11
386.718	0.01
387.076	-0.05
387.433	0.02
387.791	0.08
388.148	0.08
388.505	0.12
388.862	0.15
389.22	0.17
389.577	0.16
389.934	0.23
390.291	0.23
390.648	0.21
391.005	0.18
391.362	0.18
391.718	0.18
392.075	0.13
392.432	0.08
392.789	0.05
393.145	0.03
393.502	0.05
393.859	0.08
394.215	0.1
394.572	0.07
394.928	0.05
395.285	0.04
395.641	0.14
395.997	0.14
396.354	0.13
396.71	0.14
397.066	0.17
397.422	0.2
397.778	0.22
398.134	0.25
398.491	0.17
398.846	0.09
399.202	0.09
399.558	0.06
399.914	0.06
400.27	0.1
400.626	0.07
400.981	0.15
401.337	0.22
401.693	0.27
402.048	0.15
402.404	0.19
402.759	0.16
403.115	0.18
403.47	0.22
403.826	0.24
404.181	0.18
404.536	0.12
404.892	0.1
405.247	0.08
405.602	0.01
405.957	-0.02
406.312	-0.08
406.667	-0.09
407.022	-0.12
407.377	-0.05
407.732	0.03
408.087	-0.06
408.442	0.01
408.796	-0.02
409.151	0.03
409.506	0.09
409.86	0.07
410.215	0.02
410.57	-0.02
410.924	0.09
411.279	0.06
411.633	0.05
411.987	0.06
412.342	0.07
412.696	0.07
413.05	0.16
413.404	0.21
413.758	0.33
414.113	0.36
414.467	0.35
414.821	0.29
415.175	0.4
415.529	0.4
415.882	0.4
416.236	0.38
416.59	0.37
416.944	0.45
417.298	0.55
417.651	0.59
418.005	0.59
418.358	0.56
418.712	0.54
419.065	0.51
419.419	0.57
419.772	0.53
420.126	0.62
420.479	0.65
420.832	0.58
421.185	0.65
421.539	0.63
421.892	0.67
422.245	0.69
422.598	0.68
422.951	0.73
423.304	0.75
423.657	0.81
424.01	0.78
424.363	0.73
424.715	0.72
425.068	0.76
425.421	0.78
425.773	0.8
426.126	0.87
426.479	0.83
426.831	0.81
427.184	0.8
427.536	0.86
427.889	0.91
428.241	0.85
428.593	0.89
428.945	0.89
429.298	0.94
429.65	0.99
430.002	0.96
430.354	1.04
430.706	1.06
431.058	1.08
431.41	0.99
431.762	0.92
432.114	0.96
432.466	0.95
432.817	0.95
433.169	1.01
433.521	0.94
433.872	0.96
434.224	0.85
434.576	0.84
434.927	0.74
435.279	0.69
435.63	0.66
435.981	0.69
436.333	0.66
436.684	0.69
437.035	0.65
437.387	0.7
437.738	0.66
438.089	0.65
438.44	0.63
438.791	0.59
439.142	0.59
439.493	0.56
439.844	0.59
440.195	0.62
440.545	0.61
440.896	0.59
441.247	0.58
441.598	0.5
441.948	0.5
442.299	0.53
442.649	0.51
443	0.61
443.35	0.61
443.701	0.58
444.051	0.64
444.401	0.63
444.752	0.62
445.102	0.57
445.452	0.51
445.802	0.53
446.152	0.47
446.502	0.52
446.852	0.42
447.202	0.48
447.552	0.47
447.902	0.46
448.252	0.36
448.602	0.79
448.952	0.81
449.301	0.87
449.651	0.92
450.001	1
450.35	1.06
450.7	1.11
451.049	1.19
451.399	1.29
451.748	1.28
452.097	1.38
452.447	1.36
452.796	1.44
453.145	1.57
453.494	1.57
453.843	1.62
454.193	1.71
454.542	1.7
454.891	1.7
455.239	1.68
455.588	1.8
455.937	1.76
456.286	1.82
456.635	1.78
456.984	1.77
457.332	1.29
457.681	1.21
458.03	1.27
458.378	1.2
458.727	1.13
459.075	1.19
459.423	1.25
459.772	1.23
460.12	1.1
460.468	1.11
460.817	1.07
461.165	1.08
461.513	1.02
461.861	0.95
462.209	0.97
462.557	0.96
462.905	0.92
463.253	1
463.601	1.16
463.949	1.16
464.297	1.1
464.644	1.21
464.992	1.23
465.34	1.32
465.687	1.47
466.035	1.41
466.383	1.56
466.73	1.39
467.078	1.43
467.425	1.38
467.772	1.45
468.12	1.36
468.467	1.33
468.814	1.48
469.161	1.45
469.508	1.54
469.856	1.52
470.203	1.51
470.55	1.53
470.897	1.59
471.243	1.57
471.59	1.63
471.937	1.62
472.284	1.59
472.631	1.43
472.977	1.45
473.324	1.44
473.671	1.39
474.017	1.37
474.364	1.28
474.71	1.31
475.057	1.25
475.403	1.3
475.749	1.3
476.096	1.32
476.442	1.3
476.788	1.33
477.134	1.38
477.48	1.3
477.826	1.36
478.172	1.25
478.518	1.31
478.864	1.39
479.21	1.47
479.556	1.43
479.902	1.54
480.248	1.55
480.593	1.57
480.939	1.46
481.285	1.58
481.63	1.59
481.976	1.58
482.321	1.63
482.667	1.64
483.012	1.71
483.357	1.78
483.703	1.81
484.048	1.96
484.393	2.06
484.738	2.12
485.084	2.1
485.429	2.18
485.774	2.25
486.119	2.37
486.464	2.44
486.808	2.57
487.153	2.68
487.498	2.78
487.843	2.78
488.188	2.99
488.532	3.13
488.877	3.31
489.222	3.52
489.566	3.84
489.911	4.1
490.255	4.44
490.6	4.74
490.944	5
491.288	5.38
491.633	5.7
491.977	6.01
492.321	6.46
492.665	6.8
493.009	7.16
493.353	7.64
493.697	8.15
494.041	8.58
494.385	9.03
494.729	9.46
495.073	9.98
495.417	10.54
495.76	11.07
496.104	11.65
496.448	12.28
496.791	12.9
497.135	13.51
497.479	14.13
497.822	14.78
498.165	15.4
498.509	16.11
498.852	16.8
499.196	17.51
499.539	18.14
499.882	18.73
500.225	19.48
500.568	20.22
500.911	20.9
501.254	21.62
501.597	22.32
501.94	23.01
502.283	23.7
502.626	24.46
502.969	25.06
503.312	25.74
503.654	26.39
503.997	26.97
504.34	27.63
504.682	28.29
505.025	28.87
505.367	29.53
505.71	30.08
506.052	30.69
506.395	31.38
506.737	32.02
507.079	32.66
507.421	33.25
507.764	33.82
508.106	34.49
508.448	35.12
508.79	35.67
509.132	36.2
509.474	36.72
509.816	37.1
510.158	37.63
510.499	38.13
510.841	38.57
511.183	39.02
511.525	39.57
511.866	40.05
512.208	40.51
512.549	40.98
512.891	41.47
513.232	41.95
513.574	42.47
513.915	42.74
514.256	43.22
514.598	43.75
514.939	44.02
515.28	44.43
515.621	44.83
515.962	45.1
516.303	45.6
516.644	46.06
516.985	46.44
517.326	46.7
517.667	47.03
518.008	47.26
518.349	47.7
518.69	48
519.03	48.25
519.371	48.6
519.712	48.83
520.052	49.2
520.393	49.46
520.733	49.76
521.074	50.16
521.414	50.52
521.754	50.85
522.095	51.12
522.435	51.51
522.775	51.8
523.115	52.06
523.455	52.24
523.795	52.33
524.135	52.39
524.475	52.54
524.815	52.59
525.155	52.78
525.495	52.89
525.835	53.15
526.175	53.37
526.514	53.71
526.854	53.88
527.194	54.03
527.533	54.28
527.873	54.44
528.212	54.76
528.552	54.9
528.891	54.94
529.23	55.1
529.57	55.26
529.909	55.43
530.248	55.35
530.587	55.55
530.927	55.63
531.266	55.64
531.605	55.7
531.944	55.85
532.283	56.14
532.621	56.3
532.96	56.68
533.299	56.83
533.638	56.91
533.977	57.16
534.315	57.37
534.654	57.45
534.992	57.49
535.331	57.51
535.67	57.73
536.008	57.81
536.346	57.96
536.685	57.79
537.023	57.9
537.361	58.22
537.7	58.25
538.038	58.19
538.376	58.26
538.714	58.46
539.052	58.52
539.39	58.55
539.728	58.67
540.066	58.61
540.404	58.83
540.741	58.92
541.079	59.11
541.417	59.04
541.755	59.05
542.092	59.02
542.43	58.97
542.767	58.91
543.105	58.88
543.442	58.93
543.78	58.98
544.117	58.9
544.454	59.04
544.792	59.02
545.129	59.27
545.466	59.26
545.803	59.26
546.14	59.4
546.477	59.53
546.814	59.43
547.151	59.39
547.488	59.38
547.825	59.4
548.162	59.38
548.499	59.57
548.835	59.61
549.172	59.68
549.509	59.68
549.845	59.77
550.182	59.89
550.518	60.01
550.855	60.16
551.191	60.23
551.528	60.24
551.864	60.36
552.2	60.5
552.537	60.66
552.873	60.62
553.209	60.74
553.545	60.62
553.881	60.69
554.217	60.7
554.553	60.91
554.889	61.04
555.225	61.08
555.561	61.16
555.896	61.23
556.232	61.38
556.568	61.57
556.903	61.45
557.239	61.4
557.575	61.44
557.91	61.45
558.245	61.52
558.581	61.5
558.916	61.61
559.252	61.62
559.587	61.66
559.922	61.83
560.257	61.84
560.592	61.89
560.928	61.94
561.263	62.06
561.598	62.04
561.933	62.21
562.267	62.32
562.602	62.35
562.937	62.36
563.272	62.48
563.607	62.65
563.941	62.89
564.276	63.04
564.611	62.98
564.945	63.09
565.28	63.27
565.614	63.22
565.949	63.2
566.283	63.13
566.617	63.28
566.951	63.56
567.286	63.72
567.62	63.81
567.954	63.92
568.288	64.04
568.622	63.98
568.956	63.98
569.29	64.11
569.624	64.04
569.958	64.06
570.292	64.05
570.626	64.11
570.959	64.23
571.293	64.21
571.627	64.23
571.96	64.2
572.294	64.19
572.627	64.17
572.961	64.25
573.294	64.25
573.627	64.3
573.961	64.44
574.294	64.54
574.627	64.81
574.961	64.81
575.294	64.67
575.627	64.73
575.96	64.63
576.293	64.41
576.626	64.31
576.959	64.39
577.292	64.4
577.624	64.32
577.957	64.37
578.29	64.49
578.623	64.6
578.955	64.59
579.288	64.56
579.62	64.56
579.953	64.41
580.285	64.37
580.618	64.46
580.95	64.51
581.282	64.58
581.615	64.6
581.947	64.52
582.279	64.58
582.611	64.47
582.943	64.33
583.275	64.33
583.607	64.46
583.939	64.35
584.271	64.37
584.603	64.63
584.935	64.69
585.267	64.67
585.598	64.85
585.93	64.95
586.262	65.04
586.593	65.07
586.925	65
587.256	64.96
587.588	64.95
587.919	64.97
588.25	65.15
588.582	65.26
588.913	65.25
589.244	65.32
589.575	65.4
589.907	65.41
590.238	65.47
590.569	65.49
590.9	65.72
591.231	65.7
591.562	65.58
591.892	65.44
592.223	65.43
592.554	65.56
592.885	65.66
593.215	65.7
593.546	65.66
593.877	65.47
594.207	65.34
594.538	65.32
594.868	65.28
595.198	65.13
595.529	65.1
595.859	65.04
596.189	65.13
596.52	65.12
596.85	65.2
597.18	65.12
597.51	65.06
597.84	64.99
598.17	65.11
598.5	65.1
598.83	64.96
599.16	64.94
599.489	65.1
599.819	65.21
600.149	65.21
600.479	65.1
600.808	64.93
601.138	64.77
601.467	64.74
601.797	64.76
602.126	64.74
602.456	64.83
602.785	64.82
603.114	64.68
603.443	64.91
603.773	64.96
604.102	65.04
604.431	64.98
604.76	64.91
605.089	64.71
605.418	64.62
605.747	64.69
606.076	64.7
606.405	64.55
606.733	64.61
607.062	64.7
607.391	64.54
607.72	64.32
608.048	64.06
608.377	64.06
608.705	64.15
609.034	64.17
609.362	64.15
609.69	64.13
610.019	64.22
610.347	64.28
610.675	64.31
611.004	64.4
611.332	64.6
611.66	64.62
611.988	64.52
612.316	64.53
612.644	64.59
612.972	64.7
613.3	64.88
613.627	64.96
613.955	64.9
614.283	64.75
614.611	64.73
614.938	64.75
615.266	64.81
615.593	64.87
615.921	64.91
616.248	65.39
616.576	65.48
616.903	65.67
617.23	65.79
617.558	66
617.885	66.07
618.212	66.05
618.539	66.22
618.866	65.93
619.193	65.66
619.52	65.34
619.847	65.19
620.174	65.28
620.501	65.27
620.828	65.21
621.155	64.91
621.481	64.88
621.808	64.72
622.135	64.77
622.461	64.72
622.788	64.81
623.114	64.62
623.441	64.25
623.767	64.09
624.093	64.09
624.42	63.64
624.746	63.52
625.072	63.29
625.398	63.4
625.725	63.37
626.051	63.26
626.377	63.1
626.703	62.76
627.029	62.97
627.354	63.12
627.68	63.24
628.006	63.07
628.332	62.89
628.658	62.76
628.983	62.55
629.309	62.88
629.634	62.94
629.96	62.88
630.285	62.42
630.611	62.29
630.936	62.03
631.262	62.74
631.587	62.97
631.912	63.46
632.237	63.85
632.562	64.53
632.887	64.4
633.213	64.6
633.538	64.9
633.863	64.91
634.187	64.53
634.512	64.67
634.837	64.63
635.162	64.68
635.487	63.99
635.811	64.22
636.136	64.88
636.461	65.29
636.785	65.85
637.11	65.99
637.434	65.59
637.758	65.54
638.083	65.58
638.407	66.17
638.731	66.23
639.056	66.81
639.38	66.42
639.704	66.81
640.028	66.92
640.352	66.38
640.676	65.9
641	65.88
641.324	65.49
641.648	64.78
641.972	64.48
642.295	65.02
642.619	64.84
642.943	65.16
643.266	65.01
643.59	65.32
643.913	64.92
644.237	64.52
644.56	63.94
644.884	63.98
645.207	64.35
645.53	64.56
645.854	64.68
646.177	64.79
646.5	64.83
646.823	65.7
647.146	65.51
647.469	65.07
647.792	64.61
648.115	64.53
648.438	64.94
648.761	66.69
649.084	66.96
649.406	66.99
649.729	66.22
650.052	66.06
650.374	65.85
650.697	65.73
651.019	65.62
651.342	65.55
651.664	65.84
651.987	65.94
652.309	66.01
652.631	66.31
652.953	66.31
653.276	65.95
653.598	66.02
653.92	65.99
654.242	66.15
654.564	66.1
654.886	65.83
655.208	65.71
655.53	65.71
655.851	65.68
656.173	65.58
656.495	65.46
656.816	64.67
657.138	64.43
657.46	63.72
657.781	64.2
658.103	64.06
658.424	64.02
658.746	64.36
659.067	63.95
659.388	63.7
659.709	62.68
660.031	61.71
660.352	61.63
660.673	60.45
660.994	59.82
661.315	60.79
661.636	60.63
661.957	60.07
