Data from T2_Reflection__43__19-19-36-228.txt Node

Date: Fri Jun 04 19:19:36 CEST 2021
User: mabdelazizm
Spectrometer: FLMS18565
Trigger mode: 0
Integration Time (sec): 2.000000E0
Scans to average: 1
Electric dark correction enabled: true
Nonlinearity correction enabled: false
Boxcar width: 12
XAxis mode: Wavelengths
Number of Pixels in Spectrum: 2048
>>>>>Begin Spectral Data<<<<<
179.071	-94.11
179.452	-46.42
179.833	-148.5
180.214	-157.69
180.595	-198.08
180.977	-332.7
181.358	-326.88
181.739	-310.06
182.12	-212.24
182.501	-246.39
182.882	-247.96
183.262	-1065.71
183.643	-183.4
184.024	-131.66
184.405	-62.21
184.786	-36.63
185.166	-26.78
185.547	-6.36
185.927	2.95
186.308	-0.8
186.689	13.72
187.069	8.8
187.449	5.95
187.83	-2.14
188.21	-4.01
188.59	1.77
188.971	-2.7
189.351	1.78
189.731	3.33
190.111	7.67
190.491	6.11
190.871	6.19
191.251	9.98
191.631	11.16
192.011	10.68
192.391	10.45
192.771	15.86
193.151	13.29
193.531	16.29
193.91	18.43
194.29	18.75
194.67	17.65
195.049	14.74
195.429	14.84
195.808	14.73
196.188	9.09
196.567	9.15
196.946	9.65
197.326	11.89
197.705	12.82
198.084	8.46
198.464	8.42
198.843	8.58
199.222	6.97
199.601	7.06
199.98	6.64
200.359	7.57
200.738	9.56
201.117	7.13
201.496	5.11
201.875	5.74
202.254	5.78
202.632	5.92
203.011	5.67
203.39	5.75
203.768	5.04
204.147	7.83
204.525	7.06
204.904	3.11
205.282	6.24
205.661	5.62
206.039	8.61
206.418	6.63
206.796	8.42
207.174	7.1
207.552	7.67
207.931	7.02
208.309	4.84
208.687	6.17
209.065	7.81
209.443	7.99
209.821	6.61
210.199	4.52
210.577	4.84
210.954	8.87
211.332	8.04
211.71	5.75
212.088	5.8
212.465	4.92
212.843	3.31
213.221	5.85
213.598	3.59
213.976	4.05
214.353	4.99
214.731	2.38
215.108	4.16
215.485	4.19
215.863	4.38
216.24	1.66
216.617	1.68
216.994	2.34
217.371	3.6
217.749	4.31
218.126	4.54
218.503	3.01
218.88	2.34
219.256	2.69
219.633	2.49
220.01	2.63
220.387	1.07
220.764	1.02
221.14	2.15
221.517	2
221.894	2.3
222.27	2.07
222.647	0.04
223.023	0.11
223.4	-0.39
223.776	0.64
224.153	0.26
224.529	0.26
224.905	-0.22
225.282	-0.28
225.658	-0.13
226.034	-0.13
226.41	0.13
226.786	-0.39
227.162	-0.06
227.538	-0.35
227.914	-0.27
228.29	-0.47
228.666	-0.48
229.042	-0.53
229.418	-0.46
229.793	-0.5
230.169	-0.56
230.545	-0.95
230.92	-0.96
231.296	-0.96
231.672	-0.83
232.047	-0.48
232.422	-0.49
232.798	-0.13
233.173	-0.38
233.549	-0.19
233.924	-0.19
234.299	-0.18
234.674	-0.14
235.05	-0.23
235.425	-0.22
235.8	-0.12
236.175	-0.01
236.55	-0.02
236.925	0.03
237.3	0.17
237.675	0.31
238.049	0.26
238.424	0.23
238.799	0.3
239.174	0.43
239.548	0.54
239.923	0.61
240.297	0.6
240.672	0.66
241.046	0.72
241.421	0.76
241.795	0.75
242.17	0.65
242.544	0.72
242.918	0.62
243.293	0.59
243.667	0.56
244.041	0.58
244.415	0.7
244.789	0.68
245.163	0.61
245.537	0.59
245.911	0.61
246.285	0.63
246.659	0.57
247.033	0.58
247.406	0.67
247.78	0.69
248.154	0.6
248.528	0.63
248.901	0.6
249.275	0.6
249.648	0.65
250.022	0.62
250.395	0.56
250.769	0.54
251.142	0.59
251.515	0.6
251.888	0.54
252.262	0.6
252.635	0.66
253.008	0.67
253.381	0.62
253.754	0.61
254.127	0.63
254.5	0.62
254.873	0.64
255.246	0.6
255.619	0.6
255.992	0.61
256.364	0.59
256.737	0.55
257.11	0.58
257.483	0.6
257.855	0.6
258.228	0.62
258.6	0.62
258.973	0.65
259.345	0.66
259.718	0.66
260.09	0.64
260.462	0.58
260.834	0.59
261.207	0.68
261.579	0.67
261.951	0.64
262.323	0.59
262.695	0.71
263.067	0.72
263.439	0.74
263.811	0.8
264.183	0.8
264.555	0.83
264.927	0.81
265.298	0.77
265.67	0.74
266.042	0.71
266.413	0.67
266.785	0.65
267.156	0.62
267.528	0.58
267.899	0.53
268.271	0.48
268.642	0.41
269.013	0.46
269.385	0.47
269.756	0.46
270.127	0.39
270.498	0.37
270.87	0.36
271.241	0.35
271.612	0.4
271.983	0.35
272.354	0.29
272.724	0.29
273.095	0.28
273.466	0.25
273.837	0.25
274.208	0.27
274.578	0.28
274.949	0.35
275.32	0.38
275.69	0.36
276.061	0.37
276.431	0.37
276.802	0.34
277.172	0.4
277.542	0.38
277.913	0.44
278.283	0.41
278.653	0.43
279.023	0.43
279.394	0.51
279.764	0.48
280.134	0.51
280.504	0.5
280.874	0.49
281.244	0.45
281.614	0.45
281.983	0.4
282.353	0.42
282.723	0.5
283.093	0.49
283.462	0.48
283.832	0.52
284.202	0.5
284.571	0.47
284.941	0.48
285.31	0.52
285.68	0.52
286.049	0.49
286.418	0.47
286.788	0.51
287.157	0.49
287.526	0.46
287.895	0.47
288.264	0.51
288.633	0.4
289.002	0.37
289.371	0.41
289.74	0.36
290.109	0.36
290.478	0.35
290.847	0.39
291.216	0.43
291.585	0.35
291.953	0.22
292.322	0.23
292.691	0.19
293.059	0.12
293.428	0.09
293.796	0.11
294.165	0.08
294.533	0.05
294.901	0.03
295.27	0.11
295.638	0.11
296.006	0.05
296.374	0.03
296.743	0.03
297.111	-0
297.479	-0.01
297.847	0.07
298.215	0.08
298.583	0.05
298.95	0.07
299.318	0.08
299.686	0.09
300.054	0.04
300.422	0.02
300.789	0.01
301.157	0.05
301.525	0.02
301.892	0.06
302.26	0.08
302.627	0.11
302.994	0.09
303.362	0.16
303.729	0.2
304.097	0.19
304.464	0.13
304.831	0.11
305.198	0.11
305.565	0.11
305.932	0.11
306.299	0.07
306.666	0.04
307.033	-0.01
307.4	0.04
307.767	-0.04
308.134	-0.05
308.501	-0.05
308.867	-0.08
309.234	-0.04
309.601	-0.02
309.967	-0.03
310.334	-0.04
310.701	-0.04
311.067	-0.08
311.433	-0.05
311.8	-0.09
312.166	-0.07
312.533	-0.15
312.899	-0.17
313.265	-0.14
313.631	-0.05
313.997	-0.05
314.363	-0.05
314.729	-0.05
315.096	-0.04
315.461	-0.04
315.827	0.01
316.193	0.02
316.559	0
316.925	0.04
317.291	0.13
317.656	0.13
318.022	0.14
318.388	0.13
318.753	0.08
319.119	0.09
319.484	0.1
319.85	0.11
320.215	0.12
320.581	0.13
320.946	0.13
321.311	0.13
321.676	0.17
322.042	0.18
322.407	0.12
322.772	0.06
323.137	0.05
323.502	0.12
323.867	0.16
324.232	0.11
324.597	0.15
324.962	0.12
325.327	0.14
325.691	0.16
326.056	0.17
326.421	0.12
326.785	0.11
327.15	0.06
327.514	0.06
327.879	0.13
328.243	0.19
328.608	0.18
328.972	0.2
329.337	0.14
329.701	0.12
330.065	0.13
330.429	0.12
330.794	0.13
331.158	0.1
331.522	0.08
331.886	0.07
332.25	0.08
332.614	0.02
332.978	-0.03
333.342	0.04
333.705	-0.01
334.069	-0.02
334.433	-0.09
334.797	-0.12
335.16	-0.16
335.524	-0.16
335.887	-0.14
336.251	-0.1
336.614	-0.12
336.978	-0.12
337.341	-0.15
337.705	-0.18
338.068	-0.14
338.431	-0.06
338.794	-0.11
339.158	-0.1
339.521	-0.12
339.884	-0.21
340.247	-0.2
340.61	-0.15
340.973	-0.13
341.336	-0.13
341.699	-0.14
342.062	-0.1
342.424	-0.11
342.787	-0.11
343.15	-0.12
343.512	-0.05
343.875	-0.09
344.238	-0.05
344.6	-0.11
344.963	-0.14
345.325	-0.17
345.688	-0.2
346.05	-0.26
346.412	-0.21
346.775	-0.19
347.137	-0.24
347.499	-0.24
347.861	-0.18
348.223	-0.2
348.585	-0.21
348.947	-0.15
349.309	-0.19
349.671	-0.19
350.033	-0.21
350.395	-0.23
350.757	-0.31
351.118	-0.42
351.48	-0.49
351.842	-0.44
352.203	-0.42
352.565	-0.47
352.927	-0.45
353.288	-0.49
353.65	-0.49
354.011	-0.47
354.372	-0.37
354.734	-0.33
355.095	-0.34
355.456	-0.4
355.817	-0.38
356.179	-0.39
356.54	-0.36
356.901	-0.44
357.262	-0.45
357.623	-0.46
357.984	-0.43
358.345	-0.36
358.705	-0.37
359.066	-0.36
359.427	-0.37
359.788	-0.29
360.148	-0.16
360.509	-0.12
360.87	-0.09
361.23	-0.08
361.591	-0
361.951	-0.03
362.312	-0
362.672	0.07
363.032	0.11
363.393	-0
363.753	-0.06
364.113	-0.05
364.473	-0.06
364.833	-0.04
365.193	-0.08
365.553	-0.09
365.913	-0.1
366.273	-0.11
366.633	-0.11
366.993	-0.19
367.353	-0.29
367.713	-0.28
368.072	-0.31
368.432	-0.28
368.792	-0.3
369.151	-0.36
369.511	-0.34
369.87	-0.46
370.23	-0.43
370.589	-0.46
370.949	-0.4
371.308	-0.44
371.667	-0.49
372.027	-0.54
372.386	-0.53
372.745	-0.46
373.104	-0.46
373.463	-0.43
373.822	-0.45
374.181	-0.43
374.54	-0.48
374.899	-0.37
375.258	-0.43
375.617	-0.39
375.975	-0.3
376.334	-0.27
376.693	-0.19
377.052	-0.14
377.41	-0.1
377.769	-0.1
378.127	-0.08
378.486	-0.08
378.844	-0.06
379.202	-0.12
379.561	-0.18
379.919	-0.18
380.277	-0.14
380.636	-0.11
380.994	-0.12
381.352	-0.11
381.71	-0.16
382.068	-0.13
382.426	-0.1
382.784	-0.08
383.142	-0.06
383.5	-0
383.857	-0.07
384.215	-0.02
384.573	-0.08
384.931	-0.06
385.288	-0.08
385.646	-0.18
386.003	-0.22
386.361	-0.28
386.718	-0.26
387.076	-0.32
387.433	-0.42
387.791	-0.39
388.148	-0.38
388.505	-0.39
388.862	-0.4
389.22	-0.41
389.577	-0.42
389.934	-0.4
390.291	-0.38
390.648	-0.34
391.005	-0.42
391.362	-0.54
391.718	-0.59
392.075	-0.64
392.432	-0.65
392.789	-0.65
393.145	-0.55
393.502	-0.52
393.859	-0.59
394.215	-0.53
394.572	-0.53
394.928	-0.54
395.285	-0.52
395.641	-0.5
395.997	-0.43
396.354	-0.37
396.71	-0.35
397.066	-0.29
397.422	-0.26
397.778	-0.31
398.134	-0.27
398.491	-0.33
398.846	-0.37
399.202	-0.34
399.558	-0.41
399.914	-0.36
400.27	-0.32
400.626	-0.32
400.981	-0.29
401.337	-0.32
401.693	-0.3
402.048	-0.39
402.404	-0.39
402.759	-0.37
403.115	-0.36
403.47	-0.32
403.826	-0.3
404.181	-0.33
404.536	-0.42
404.892	-0.47
405.247	-0.47
405.602	-0.5
405.957	-0.59
406.312	-0.65
406.667	-0.59
407.022	-0.6
407.377	-0.57
407.732	-0.58
408.087	-0.68
408.442	-0.65
408.796	-0.69
409.151	-0.62
409.506	-0.59
409.86	-0.6
410.215	-0.61
410.57	-0.67
410.924	-0.59
411.279	-0.58
411.633	-0.54
411.987	-0.52
412.342	-0.47
412.696	-0.48
413.05	-0.4
413.404	-0.23
413.758	-0.15
414.113	-0.13
414.467	-0.07
414.821	0
415.175	0.09
415.529	0.09
415.882	0.07
416.236	0.09
416.59	0.13
416.944	0.24
417.298	0.32
417.651	0.35
418.005	0.4
418.358	0.43
418.712	0.47
419.065	0.46
419.419	0.5
419.772	0.46
420.126	0.52
420.479	0.53
420.832	0.45
421.185	0.47
421.539	0.47
421.892	0.44
422.245	0.42
422.598	0.45
422.951	0.48
423.304	0.48
423.657	0.46
424.01	0.46
424.363	0.43
424.715	0.47
425.068	0.5
425.421	0.56
425.773	0.59
426.126	0.73
426.479	0.75
426.831	0.74
427.184	0.67
427.536	0.72
427.889	0.78
428.241	0.86
428.593	0.88
428.945	0.93
429.298	0.98
429.65	1.09
430.002	1.14
430.354	1.25
430.706	1.31
431.058	1.37
431.41	1.32
431.762	1.32
432.114	1.37
432.466	1.44
432.817	1.52
433.169	1.67
433.521	1.72
433.872	1.73
434.224	1.8
434.576	1.82
434.927	1.7
435.279	1.72
435.63	1.79
435.981	1.89
436.333	1.96
436.684	2.06
437.035	2.05
437.387	2.08
437.738	2.05
438.089	1.97
438.44	1.96
438.791	1.86
439.142	1.8
439.493	1.78
439.844	1.85
440.195	1.92
440.545	1.99
440.896	1.99
441.247	1.95
441.598	1.93
441.948	1.93
442.299	1.92
442.649	1.97
443	1.92
443.35	1.91
443.701	1.91
444.051	1.9
444.401	1.9
444.752	1.93
445.102	1.9
445.452	1.79
445.802	1.8
446.152	1.81
446.502	1.83
446.852	1.87
447.202	1.89
447.552	1.97
447.902	2.06
448.252	2.03
448.602	2.42
448.952	2.43
449.301	2.44
449.651	2.49
450.001	2.5
450.35	2.49
450.7	2.45
451.049	2.47
451.399	2.6
451.748	2.75
452.097	2.94
452.447	2.95
452.796	2.99
453.145	3.11
453.494	3.11
453.843	3.12
454.193	3.23
454.542	3.33
454.891	3.51
455.239	3.54
455.588	3.65
455.937	3.66
456.286	3.73
456.635	3.7
456.984	3.8
457.332	3.39
457.681	3.44
458.03	3.62
458.378	3.69
458.727	3.8
459.075	3.92
459.423	4.1
459.772	4.21
460.12	4.15
460.468	4.16
460.817	4.14
461.165	4.24
461.513	4.31
461.861	4.27
462.209	4.41
462.557	4.58
462.905	4.66
463.253	4.68
463.601	4.75
463.949	4.81
464.297	4.82
464.644	4.94
464.992	4.96
465.34	5.01
465.687	5.11
466.035	5.05
466.383	5.09
466.73	4.9
467.078	4.87
467.425	4.84
467.772	4.95
468.12	4.94
468.467	4.89
468.814	4.86
469.161	4.82
469.508	4.74
469.856	4.62
470.203	4.61
470.55	4.59
470.897	4.53
471.243	4.33
471.59	4.29
471.937	4.28
472.284	4.08
472.631	3.96
472.977	3.91
473.324	3.85
473.671	3.7
474.017	3.7
474.364	3.58
474.71	3.57
475.057	3.47
475.403	3.54
475.749	3.58
476.096	3.57
476.442	3.49
476.788	3.44
477.134	3.49
477.48	3.52
477.826	3.52
478.172	3.46
478.518	3.58
478.864	3.57
479.21	3.63
479.556	3.62
479.902	3.77
480.248	3.81
480.593	3.82
480.939	3.83
481.285	3.96
481.63	4.06
481.976	4.14
482.321	4.27
482.667	4.41
483.012	4.53
483.357	4.66
483.703	4.84
484.048	5.04
484.393	5.1
484.738	5.25
485.084	5.31
485.429	5.46
485.774	5.62
486.119	5.77
486.464	5.96
486.808	6.21
487.153	6.42
487.498	6.65
487.843	6.84
488.188	7.11
488.532	7.41
488.877	7.69
489.222	8.04
489.566	8.51
489.911	8.89
490.255	9.24
490.6	9.62
490.944	10.01
491.288	10.34
491.633	10.81
491.977	11.17
492.321	11.62
492.665	11.97
493.009	12.54
493.353	13.01
493.697	13.57
494.041	14.13
494.385	14.63
494.729	15.2
495.073	15.76
495.417	16.36
495.76	16.96
496.104	17.59
496.448	18.22
496.791	18.84
497.135	19.43
497.479	20.09
497.822	20.74
498.165	21.37
498.509	21.99
498.852	22.73
499.196	23.45
499.539	24.16
499.882	24.89
500.225	25.58
500.568	26.31
500.911	26.9
501.254	27.65
501.597	28.25
501.94	28.97
502.283	29.61
502.626	30.35
502.969	31.01
503.312	31.63
503.654	32.24
503.997	32.9
504.34	33.55
504.682	34.18
505.025	34.77
505.367	35.38
505.71	35.94
506.052	36.45
506.395	37.05
506.737	37.58
507.079	38.36
507.421	38.97
507.764	39.5
508.106	40.05
508.448	40.56
508.79	40.99
509.132	41.52
509.474	42.1
509.816	42.47
510.158	43.01
510.499	43.42
510.841	43.85
511.183	44.19
511.525	44.61
511.866	45
512.208	45.41
512.549	45.74
512.891	46.14
513.232	46.66
513.574	47.17
513.915	47.52
514.256	47.96
514.598	48.43
514.939	48.76
515.28	49.16
515.621	49.33
515.962	49.51
516.303	49.84
516.644	50.1
516.985	50.42
517.326	50.76
517.667	51.1
518.008	51.34
518.349	51.72
518.69	52.02
519.03	52.3
519.371	52.67
519.712	52.86
520.052	53.09
520.393	53.34
520.733	53.54
521.074	53.9
521.414	54.12
521.754	54.21
522.095	54.35
522.435	54.65
522.775	54.78
523.115	55.06
523.455	55.22
523.795	55.31
524.135	55.44
524.475	55.66
524.815	55.79
525.155	56.11
525.495	56.24
525.835	56.45
526.175	56.61
526.514	56.84
526.854	56.88
527.194	56.93
527.533	57.08
527.873	57.1
528.212	57.38
528.552	57.62
528.891	57.74
529.23	58.01
529.57	57.96
529.909	58.19
530.248	58.22
530.587	58.39
530.927	58.43
531.266	58.62
531.605	58.72
531.944	58.78
532.283	58.9
532.621	59.01
532.96	59.3
533.299	59.49
533.638	59.5
533.977	59.52
534.315	59.54
534.654	59.41
534.992	59.47
535.331	59.56
535.67	59.7
536.008	59.73
536.346	59.88
536.685	59.7
537.023	59.64
537.361	59.82
537.7	59.86
538.038	59.94
538.376	59.75
538.714	59.89
539.052	59.9
539.39	59.95
539.728	59.92
540.066	59.8
540.404	59.89
540.741	60
541.079	59.99
541.417	59.75
541.755	59.71
542.092	59.72
542.43	59.74
542.767	59.61
543.105	59.65
543.442	59.6
543.78	59.53
544.117	59.4
544.454	59.53
544.792	59.52
545.129	59.65
545.466	59.81
545.803	59.78
546.14	59.72
546.477	59.73
546.814	59.77
547.151	59.66
547.488	59.7
547.825	59.74
548.162	59.7
548.499	59.87
548.835	59.96
549.172	59.98
549.509	60.14
549.845	60.29
550.182	60.26
550.518	60.22
550.855	60.3
551.191	60.55
551.528	60.73
551.864	60.83
552.2	60.87
552.537	60.96
552.873	60.97
553.209	61.08
553.545	61.16
553.881	61.03
554.217	60.96
554.553	61.03
554.889	61.02
555.225	61.06
555.561	61.18
555.896	61.11
556.232	61.06
556.568	61.14
556.903	61.16
557.239	61.11
557.575	61.15
557.91	61.14
558.245	61.03
558.581	60.95
558.916	61.09
559.252	61.15
559.587	61.01
559.922	60.96
560.257	61.14
560.592	61.23
560.928	61.33
561.263	61.41
561.598	61.35
561.933	61.41
562.267	61.47
562.602	61.52
562.937	61.7
563.272	61.8
563.607	61.8
563.941	61.96
564.276	62.14
564.611	62.23
564.945	62.36
565.28	62.48
565.614	62.33
565.949	62.32
566.283	62.33
566.617	62.52
566.951	62.77
567.286	62.85
567.62	62.88
567.954	63.02
568.288	63.16
568.622	63.03
568.956	62.98
569.29	63.08
569.624	63.03
569.958	63.17
570.292	63.08
570.626	63.22
570.959	63.42
571.293	63.32
571.627	63.41
571.96	63.5
572.294	63.42
572.627	63.31
572.961	63.33
573.294	63.32
573.627	63.35
573.961	63.49
574.294	63.5
574.627	63.61
574.961	63.67
575.294	63.64
575.627	63.78
575.96	63.76
576.293	63.7
576.626	63.64
576.959	63.78
577.292	63.89
577.624	63.79
577.957	63.83
578.29	63.72
578.623	63.66
578.955	63.55
579.288	63.37
579.62	63.33
579.953	63.25
580.285	63.27
580.618	63.3
580.95	63.29
581.282	63.3
581.615	63.34
581.947	63.24
582.279	63.25
582.611	63.29
582.943	63.18
583.275	63.13
583.607	63.19
583.939	62.93
584.271	62.88
584.603	62.9
584.935	62.9
585.267	62.78
585.598	62.84
585.93	63.03
586.262	63.01
586.593	63.21
586.925	63.34
587.256	63.4
587.588	63.43
587.919	63.52
588.25	63.61
588.582	63.57
588.913	63.67
589.244	63.81
589.575	63.99
589.907	64.01
590.238	63.88
590.569	64.08
590.9	64.14
591.231	64.15
591.562	64
591.892	63.94
592.223	64.06
592.554	64.19
592.885	64.16
593.215	64.17
593.546	64.1
593.877	63.95
594.207	63.81
594.538	63.77
594.868	63.65
595.198	63.61
595.529	63.56
595.859	63.43
596.189	63.55
596.52	63.58
596.85	63.66
597.18	63.56
597.51	63.59
597.84	63.52
598.17	63.52
598.5	63.64
598.83	63.46
599.16	63.47
599.489	63.59
599.819	63.69
600.149	63.66
600.479	63.54
600.808	63.4
601.138	63.35
601.467	63.25
601.797	63.29
602.126	63.35
602.456	63.25
602.785	63.27
603.114	63.16
603.443	63.26
603.773	63.22
604.102	63.46
604.431	63.35
604.76	63.21
605.089	63.01
605.418	62.98
605.747	62.91
606.076	62.92
606.405	62.76
606.733	62.8
607.062	62.89
607.391	62.81
607.72	62.67
608.048	62.62
608.377	62.57
608.705	62.59
609.034	62.7
609.362	62.82
609.69	62.91
610.019	62.89
610.347	62.86
610.675	63.07
611.004	63.26
611.332	63.31
611.66	63.35
611.988	63.39
612.316	63.47
612.644	63.32
612.972	63.33
613.3	63.48
613.627	63.54
613.955	63.52
614.283	63.17
614.611	63.29
614.938	63.43
615.266	63.45
615.593	63.49
615.921	63.4
616.248	63.48
616.576	63.5
616.903	63.54
617.23	63.17
617.558	63.06
617.885	63.19
618.212	63.08
618.539	63.07
618.866	62.71
619.193	62.44
619.52	62.76
619.847	62.53
620.174	62.54
620.501	62.45
620.828	62.75
621.155	62.91
621.481	62.72
621.808	62.69
622.135	62.63
622.461	62.85
622.788	62.71
623.114	62.55
623.441	62.06
623.767	61.78
624.093	61.86
624.42	61.71
624.746	61.96
625.072	61.9
625.398	62.54
625.725	62.82
626.051	62.56
626.377	62.71
626.703	62.76
627.029	63.2
627.354	63.04
627.68	62.38
628.006	62.52
628.332	62.56
628.658	62.46
628.983	62.35
629.309	62.32
629.634	62.56
629.96	62.48
630.285	62.53
630.611	62.69
630.936	63.24
631.262	63.61
631.587	64.18
631.912	65.15
632.237	65.34
632.562	65.81
632.887	65.78
633.213	65.97
633.538	65.93
633.863	65.82
634.187	65.85
634.512	65.9
634.837	65.91
635.162	65.76
635.487	65.73
635.811	66.15
636.136	66.38
636.461	66.15
636.785	66.1
637.11	66.3
637.434	66.27
637.758	66.07
638.083	65.73
638.407	65.75
638.731	65.39
639.056	64.76
639.38	64.28
639.704	64.37
640.028	63.59
640.352	63.92
640.676	63.73
641	63.2
641.324	63.15
641.648	62.85
641.972	62.91
642.295	62.97
642.619	62.95
642.943	62.6
643.266	62.61
643.59	62.59
643.913	62.53
644.237	62.35
644.56	62.3
644.884	62.64
645.207	62.36
645.53	62.37
645.854	62.52
646.177	63.01
646.5	63.02
646.823	63.62
647.146	63.69
647.469	63.58
647.792	62.72
648.115	63.01
648.438	62.96
648.761	64.63
649.084	64.87
649.406	65.02
649.729	64.43
650.052	64.15
650.374	64.06
650.697	64.16
651.019	64.26
651.342	64.36
651.664	64.32
651.987	64.38
652.309	64.31
652.631	64.56
652.953	64.38
653.276	64.26
653.598	64.27
653.92	64.39
654.242	64.44
654.564	64.52
654.886	64.32
655.208	64.27
655.53	64.4
655.851	64.64
656.173	64.59
656.495	64.57
656.816	63.8
657.138	63.52
657.46	62.98
657.781	63.12
658.103	62.94
