Data from T1_Reflection__31__22-37-43-233.txt Node

Date: Wed Jun 02 22:37:43 CEST 2021
User: mabdelazizm
Spectrometer: FLMS18565
Trigger mode: 0
Integration Time (sec): 2.000000E0
Scans to average: 1
Electric dark correction enabled: true
Nonlinearity correction enabled: false
Boxcar width: 12
XAxis mode: Wavelengths
Number of Pixels in Spectrum: 2048
>>>>>Begin Spectral Data<<<<<
179.071	242.94
179.452	254.55
179.833	120.15
180.214	41.82
180.595	-48.6
180.977	139.84
181.358	150.6
181.739	203.92
182.12	107.36
182.501	88.72
182.882	81.59
183.262	30.48
183.643	47.12
184.024	33.81
184.405	15.2
184.786	20.44
185.166	17.6
185.547	14.09
185.927	6.74
186.308	12.69
186.689	17.44
187.069	20.24
187.449	20.54
187.83	16.57
188.21	12
188.59	6.84
188.971	11.12
189.351	14.46
189.731	16.85
190.111	17.32
190.491	18.34
190.871	15.82
191.251	15.48
191.631	14.77
192.011	14.63
192.391	14.14
192.771	16.91
193.151	16.1
193.531	14.18
193.91	16.36
194.29	14.79
194.67	14
195.049	13.6
195.429	13.77
195.808	13.65
196.188	13.48
196.567	13.07
196.946	11.22
197.326	10.42
197.705	10.99
198.084	11.76
198.464	11.66
198.843	11.19
199.222	9.48
199.601	9.48
199.98	7.98
200.359	8.43
200.738	9.53
201.117	9.75
201.496	9.12
201.875	8.6
202.254	7.6
202.632	6.96
203.011	7.78
203.39	7.01
203.768	7.21
204.147	8.57
204.525	8.13
204.904	8.86
205.282	8.02
205.661	6.96
206.039	7.78
206.418	8.1
206.796	8.42
207.174	8.05
207.552	8.07
207.931	8.22
208.309	8.54
208.687	9.79
209.065	10.93
209.443	10.87
209.821	11.06
210.199	10.33
210.577	9.74
210.954	10.06
211.332	11.08
211.71	10.55
212.088	10.12
212.465	10.22
212.843	10.21
213.221	10.09
213.598	9.95
213.976	9.58
214.353	9
214.731	9.42
215.108	10.54
215.485	9.62
215.863	9.91
216.24	9.61
216.617	9.46
216.994	9.77
217.371	9.25
217.749	8.51
218.126	8.53
218.503	7.73
218.88	7.29
219.256	6.84
219.633	6.73
220.01	7.24
220.387	7.65
220.764	6.7
221.14	6.57
221.517	6.86
221.894	6.58
222.27	6.68
222.647	6.5
223.023	5.82
223.4	5.9
223.776	6.27
224.153	5.71
224.529	4.95
224.905	5.25
225.282	5.14
225.658	4.82
226.034	4.79
226.41	4.36
226.786	4.38
227.162	4.29
227.538	4.39
227.914	4.31
228.29	4.25
228.666	4.08
229.042	3.97
229.418	3.72
229.793	3.49
230.169	3.64
230.545	3.64
230.92	3.57
231.296	3.65
231.672	3.6
232.047	3.43
232.422	3.41
232.798	3.27
233.173	3.09
233.549	3.14
233.924	3.04
234.299	2.75
234.674	2.83
235.05	2.93
235.425	2.94
235.8	2.92
236.175	2.76
236.55	2.77
236.925	2.64
237.3	2.64
237.675	2.6
238.049	2.64
238.424	2.73
238.799	2.75
239.174	2.79
239.548	2.71
239.923	2.7
240.297	2.64
240.672	2.56
241.046	2.4
241.421	2.47
241.795	2.47
242.17	2.51
242.544	2.46
242.918	2.43
243.293	2.5
243.667	2.63
244.041	2.55
244.415	2.53
244.789	2.44
245.163	2.48
245.537	2.54
245.911	2.52
246.285	2.52
246.659	2.5
247.033	2.5
247.406	2.59
247.78	2.51
248.154	2.47
248.528	2.41
248.901	2.41
249.275	2.39
249.648	2.41
250.022	2.41
250.395	2.53
250.769	2.5
251.142	2.53
251.515	2.46
251.888	2.49
252.262	2.46
252.635	2.4
253.008	2.37
253.381	2.32
253.754	2.31
254.127	2.35
254.5	2.32
254.873	2.23
255.246	2.23
255.619	2.22
255.992	2.18
256.364	2.22
256.737	2.17
257.11	2.2
257.483	2.19
257.855	2.18
258.228	2.12
258.6	2.15
258.973	2.16
259.345	2.16
259.718	2.1
260.09	2.1
260.462	2.05
260.834	2.09
261.207	2.07
261.579	2.12
261.951	2.11
262.323	2.05
262.695	2.02
263.067	2.05
263.439	2.04
263.811	2.03
264.183	2.04
264.555	1.99
264.927	1.97
265.298	1.97
265.67	1.91
266.042	1.89
266.413	1.86
266.785	1.83
267.156	1.83
267.528	1.81
267.899	1.77
268.271	1.74
268.642	1.69
269.013	1.69
269.385	1.74
269.756	1.75
270.127	1.72
270.498	1.74
270.87	1.7
271.241	1.72
271.612	1.73
271.983	1.79
272.354	1.78
272.724	1.81
273.095	1.83
273.466	1.87
273.837	1.95
274.208	1.91
274.578	1.88
274.949	1.89
275.32	1.87
275.69	1.81
276.061	1.81
276.431	1.81
276.802	1.8
277.172	1.82
277.542	1.84
277.913	1.84
278.283	1.81
278.653	1.74
279.023	1.77
279.394	1.8
279.764	1.77
280.134	1.75
280.504	1.77
280.874	1.77
281.244	1.71
281.614	1.66
281.983	1.67
282.353	1.64
282.723	1.64
283.093	1.6
283.462	1.6
283.832	1.63
284.202	1.68
284.571	1.66
284.941	1.63
285.31	1.67
285.68	1.71
286.049	1.73
286.418	1.69
286.788	1.67
287.157	1.64
287.526	1.65
287.895	1.69
288.264	1.64
288.633	1.57
289.002	1.53
289.371	1.51
289.74	1.5
290.109	1.46
290.478	1.48
290.847	1.49
291.216	1.43
291.585	1.35
291.953	1.28
292.322	1.28
292.691	1.25
293.059	1.24
293.428	1.16
293.796	1.2
294.165	1.22
294.533	1.19
294.901	1.23
295.27	1.21
295.638	1.18
296.006	1.15
296.374	1.18
296.743	1.15
297.111	1.09
297.479	1.07
297.847	1.08
298.215	1.06
298.583	1.08
298.95	1.07
299.318	1.08
299.686	1.08
300.054	1.1
300.422	1.12
300.789	1.19
301.157	1.28
301.525	1.29
301.892	1.32
302.26	1.36
302.627	1.4
302.994	1.35
303.362	1.34
303.729	1.35
304.097	1.22
304.464	1.2
304.831	1.25
305.198	1.27
305.565	1.26
305.932	1.27
306.299	1.3
306.666	1.33
307.033	1.33
307.4	1.35
307.767	1.31
308.134	1.33
308.501	1.35
308.867	1.31
309.234	1.27
309.601	1.26
309.967	1.28
310.334	1.24
310.701	1.17
311.067	1.16
311.433	1.11
311.8	1.11
312.166	1.12
312.533	1.19
312.899	1.14
313.265	1.19
313.631	1.21
313.997	1.2
314.363	1.15
314.729	1.17
315.096	1.13
315.461	1.15
315.827	1.1
316.193	1.14
316.559	1.17
316.925	1.19
317.291	1.16
317.656	1.15
318.022	1.22
318.388	1.22
318.753	1.14
319.119	1.08
319.484	1.03
319.85	1.09
320.215	1.09
320.581	1.12
320.946	1.07
321.311	1.03
321.676	1.02
322.042	1.04
322.407	1.03
322.772	1.04
323.137	1.02
323.502	1.04
323.867	1
324.232	1.08
324.597	1.1
324.962	1.19
325.327	1.18
325.691	1.2
326.056	1.24
326.421	1.21
326.785	1.16
327.15	1.09
327.514	1.04
327.879	1.14
328.243	1.22
328.608	1.27
328.972	1.31
329.337	1.35
329.701	1.33
330.065	1.38
330.429	1.35
330.794	1.34
331.158	1.3
331.522	1.25
331.886	1.3
332.25	1.22
332.614	1.23
332.978	1.24
333.342	1.23
333.705	1.13
334.069	1.02
334.433	1.02
334.797	0.96
335.16	0.92
335.524	0.97
335.887	1
336.251	1.06
336.614	1.15
336.978	1.12
337.341	1.08
337.705	1.07
338.068	1.07
338.431	1.04
338.794	1.03
339.158	0.96
339.521	0.98
339.884	0.9
340.247	0.92
340.61	0.91
340.973	0.88
341.336	0.96
341.699	0.98
342.062	0.97
342.424	0.98
342.787	1.02
343.15	1.05
343.512	1.05
343.875	1
344.238	0.97
344.6	0.97
344.963	0.99
345.325	0.95
345.688	0.86
346.05	0.83
346.412	0.79
346.775	0.81
347.137	0.76
347.499	0.74
347.861	0.74
348.223	0.77
348.585	0.81
348.947	0.91
349.309	0.88
349.671	0.9
350.033	0.82
350.395	0.83
350.757	0.79
351.118	0.84
351.48	0.84
351.842	0.87
352.203	0.84
352.565	0.81
352.927	0.91
353.288	0.95
353.65	0.86
354.011	0.8
354.372	0.79
354.734	0.85
355.095	0.86
355.456	0.86
355.817	0.82
356.179	0.81
356.54	0.8
356.901	0.86
357.262	0.87
357.623	0.8
357.984	0.75
358.345	0.77
358.705	0.75
359.066	0.79
359.427	0.75
359.788	0.8
360.148	0.76
360.509	0.66
360.87	0.61
361.23	0.58
361.591	0.6
361.951	0.59
362.312	0.59
362.672	0.59
363.032	0.63
363.393	0.71
363.753	0.65
364.113	0.59
364.473	0.57
364.833	0.63
365.193	0.59
365.553	0.63
365.913	0.57
366.273	0.6
366.633	0.75
366.993	0.72
367.353	0.71
367.713	0.77
368.072	0.79
368.432	0.76
368.792	0.78
369.151	0.75
369.511	0.75
369.87	0.76
370.23	0.85
370.589	0.79
370.949	0.73
371.308	0.68
371.667	0.74
372.027	0.77
372.386	0.72
372.745	0.67
373.104	0.65
373.463	0.65
373.822	0.54
374.181	0.59
374.54	0.5
374.899	0.41
375.258	0.32
375.617	0.23
375.975	0.29
376.334	0.36
376.693	0.37
377.052	0.36
377.41	0.37
377.769	0.37
378.127	0.37
378.486	0.48
378.844	0.48
379.202	0.49
379.561	0.54
379.919	0.52
380.277	0.52
380.636	0.55
380.994	0.54
381.352	0.54
381.71	0.61
382.068	0.71
382.426	0.73
382.784	0.78
383.142	0.83
383.5	0.88
383.857	0.99
384.215	1
384.573	0.94
384.931	0.89
385.288	0.86
385.646	0.77
386.003	0.75
386.361	0.75
386.718	0.72
387.076	0.7
387.433	0.61
387.791	0.59
388.148	0.64
388.505	0.62
388.862	0.63
389.22	0.72
389.577	0.71
389.934	0.75
390.291	0.74
390.648	0.77
391.005	0.82
391.362	0.83
391.718	0.79
392.075	0.7
392.432	0.76
392.789	0.72
393.145	0.85
393.502	0.9
393.859	0.89
394.215	0.91
394.572	1.07
394.928	1.1
395.285	1.06
395.641	1.12
395.997	1.14
396.354	1.26
396.71	1.3
397.066	1.26
397.422	1.27
397.778	1.33
398.134	1.29
398.491	1.29
398.846	1.32
399.202	1.4
399.558	1.4
399.914	1.37
400.27	1.41
400.626	1.5
400.981	1.52
401.337	1.5
401.693	1.52
402.048	1.55
402.404	1.69
402.759	1.78
403.115	1.81
403.47	1.75
403.826	1.85
404.181	1.97
404.536	1.96
404.892	2.1
405.247	2.1
405.602	2.17
405.957	2.21
406.312	2.3
406.667	2.37
407.022	2.49
407.377	2.59
407.732	2.65
408.087	2.72
408.442	2.81
408.796	2.98
409.151	3.07
409.506	3.23
409.86	3.38
410.215	3.55
410.57	3.67
410.924	3.75
411.279	3.82
411.633	3.97
411.987	4.13
412.342	4.23
412.696	4.38
413.05	4.6
413.404	4.81
413.758	5.05
414.113	5.22
414.467	5.34
414.821	5.52
415.175	5.76
415.529	5.96
415.882	6.1
416.236	6.3
416.59	6.48
416.944	6.7
417.298	6.94
417.651	7.04
418.005	7.29
418.358	7.49
418.712	7.8
419.065	7.98
419.419	8.18
419.772	8.36
420.126	8.69
420.479	9.06
420.832	9.3
421.185	9.5
421.539	9.72
421.892	9.86
422.245	10.11
422.598	10.32
422.951	10.63
423.304	10.96
423.657	11.33
424.01	11.63
424.363	11.94
424.715	12.42
425.068	12.75
425.421	13.15
425.773	13.45
426.126	13.85
426.479	14.3
426.831	14.62
427.184	14.96
427.536	15.24
427.889	15.61
428.241	16.11
428.593	16.51
428.945	16.83
429.298	17.13
429.65	17.54
430.002	18.04
430.354	18.42
430.706	18.77
431.058	19.11
431.41	19.41
431.762	19.72
432.114	20.11
432.466	20.42
432.817	20.73
433.169	21.11
433.521	21.29
433.872	21.59
434.224	21.72
434.576	22
434.927	22.1
435.279	22.29
435.63	22.55
435.981	22.68
436.333	22.99
436.684	23.16
437.035	23.21
437.387	23.36
437.738	23.42
438.089	23.45
438.44	23.63
438.791	23.75
439.142	23.99
439.493	24.2
439.844	24.32
440.195	24.37
440.545	24.43
440.896	24.49
441.247	24.62
441.598	24.71
441.948	24.86
442.299	24.99
442.649	25.15
443	25.44
443.35	25.63
443.701	25.86
444.051	26.04
444.401	26.11
444.752	26.25
445.102	26.22
445.452	26.22
445.802	26.39
446.152	26.48
446.502	26.76
446.852	26.88
447.202	26.88
447.552	26.92
447.902	26.83
448.252	26.95
448.602	27.18
448.952	27.38
449.301	27.51
449.651	27.59
450.001	27.74
450.35	27.87
450.7	27.94
451.049	28.05
451.399	28.05
451.748	28.18
452.097	28.21
452.447	28.33
452.796	28.34
453.145	28.54
453.494	28.74
453.843	28.95
454.193	29.29
454.542	29.4
454.891	29.64
455.239	29.6
455.588	29.79
455.937	30.11
456.286	30.42
456.635	30.84
456.984	31.04
457.332	31.07
457.681	31.19
458.03	31.37
458.378	31.56
458.727	31.67
459.075	31.83
459.423	31.96
459.772	32.12
460.12	32.3
460.468	32.33
460.817	32.55
461.165	32.61
461.513	32.76
461.861	32.93
462.209	32.97
462.557	32.94
462.905	32.85
463.253	32.94
463.601	32.86
463.949	32.99
464.297	32.98
464.644	32.8
464.992	32.69
465.34	32.48
465.687	32.38
466.035	32.18
466.383	32.11
466.73	32.08
467.078	32.02
467.425	31.86
467.772	31.63
468.12	31.56
468.467	31.38
468.814	31.38
469.161	31.29
469.508	30.99
469.856	30.7
470.203	30.51
470.55	30.24
470.897	30.03
471.243	29.89
471.59	29.72
471.937	29.59
472.284	29.47
472.631	29.27
472.977	29.14
473.324	29.04
473.671	28.9
474.017	28.76
474.364	28.55
474.71	28.49
475.057	28.43
475.403	28.21
475.749	28.01
476.096	27.95
476.442	27.91
476.788	27.73
477.134	27.79
477.48	27.64
477.826	27.6
478.172	27.57
478.518	27.57
478.864	27.62
479.21	27.71
479.556	27.77
479.902	27.9
480.248	27.85
480.593	27.89
480.939	27.96
481.285	28.13
481.63	28.26
481.976	28.33
482.321	28.42
482.667	28.55
483.012	28.64
483.357	28.8
483.703	29.04
484.048	29.37
484.393	29.61
484.738	29.9
485.084	30.16
485.429	30.42
485.774	30.57
486.119	30.81
486.464	31.02
486.808	31.34
487.153	31.71
487.498	31.91
487.843	32.1
488.188	32.36
488.532	32.51
488.877	32.91
489.222	33.12
489.566	33.32
489.911	33.47
490.255	33.69
490.6	33.95
490.944	34.2
491.288	34.43
491.633	34.64
491.977	34.81
492.321	34.91
492.665	34.95
493.009	35.21
493.353	35.24
493.697	35.36
494.041	35.45
494.385	35.6
494.729	35.66
495.073	35.71
495.417	35.82
495.76	35.8
496.104	35.91
496.448	36
496.791	36.05
497.135	36.23
497.479	36.22
497.822	36.28
498.165	36.4
498.509	36.47
498.852	36.45
499.196	36.46
499.539	36.46
499.882	36.47
500.225	36.55
500.568	36.54
500.911	36.43
501.254	36.43
501.597	36.33
501.94	36.28
502.283	36.27
502.626	36.29
502.969	36.22
503.312	36.21
503.654	36.22
503.997	36.15
504.34	36.15
504.682	36.12
505.025	35.94
505.367	35.83
505.71	35.65
506.052	35.68
506.395	35.69
506.737	35.63
507.079	35.57
507.421	35.58
507.764	35.6
508.106	35.47
508.448	35.37
508.79	35.29
509.132	35.28
509.474	35.25
509.816	35.13
510.158	35.02
510.499	34.97
510.841	34.84
511.183	34.69
511.525	34.68
511.866	34.62
512.208	34.5
512.549	34.34
512.891	34.33
513.232	34.28
513.574	34.27
513.915	34.14
514.256	34.1
514.598	34.06
514.939	33.94
515.28	33.8
515.621	33.64
515.962	33.47
516.303	33.37
516.644	33.5
516.985	33.49
517.326	33.44
517.667	33.3
518.008	33.24
518.349	33.17
518.69	33.06
519.03	32.92
519.371	32.9
519.712	32.9
520.052	32.71
520.393	32.66
520.733	32.57
521.074	32.56
521.414	32.48
521.754	32.23
522.095	32.11
522.435	32.17
522.775	32.13
523.115	32.06
523.455	31.95
523.795	31.9
524.135	31.86
524.475	31.8
524.815	31.73
525.155	31.52
525.495	31.39
525.835	31.27
526.175	31.24
526.514	31.26
526.854	31.29
527.194	31.29
527.533	31.31
527.873	31.14
528.212	30.97
528.552	30.92
528.891	30.8
529.23	30.75
529.57	30.6
529.909	30.53
530.248	30.6
530.587	30.58
530.927	30.51
531.266	30.5
531.605	30.38
531.944	30.39
532.283	30.27
532.621	30.21
532.96	30.22
533.299	30.15
533.638	30.15
533.977	30.07
534.315	30.07
534.654	30.04
534.992	29.92
535.331	29.72
535.67	29.51
536.008	29.35
536.346	29.33
536.685	29.31
537.023	29.27
537.361	29.2
537.7	29.01
538.038	28.93
538.376	28.71
538.714	28.62
539.052	28.49
539.39	28.39
539.728	28.29
540.066	28.21
540.404	28.09
540.741	28.07
541.079	27.93
541.417	27.7
541.755	27.41
542.092	27.34
542.43	27.26
542.767	27.13
543.105	27
543.442	26.97
543.78	27.08
544.117	27.14
544.454	27.17
544.792	27.07
545.129	27.06
545.466	26.97
545.803	26.91
546.14	26.94
546.477	26.94
546.814	26.97
547.151	26.86
547.488	27
547.825	26.92
548.162	26.92
548.499	26.87
548.835	26.82
549.172	26.67
549.509	26.86
549.845	26.96
550.182	27.16
550.518	27.21
550.855	27.16
551.191	27.2
551.528	27.27
551.864	27.19
552.2	27.05
552.537	27.07
552.873	27.07
553.209	27.17
553.545	27.2
553.881	27.26
554.217	27.24
554.553	27.21
554.889	27.3
555.225	27.28
555.561	27.37
555.896	27.3
556.232	27.37
556.568	27.41
556.903	27.45
557.239	27.4
557.575	27.48
557.91	27.42
558.245	27.35
558.581	27.28
558.916	27.26
559.252	27.35
559.587	27.32
559.922	27.33
560.257	27.47
560.592	27.55
560.928	27.69
561.263	27.81
561.598	27.78
561.933	27.74
562.267	27.79
562.602	27.92
562.937	28.01
563.272	28.03
563.607	28.25
563.941	28.28
564.276	28.23
564.611	28.2
564.945	28.25
565.28	28.23
565.614	28.24
565.949	28.39
566.283	28.43
566.617	28.55
566.951	28.6
567.286	28.62
567.62	28.68
567.954	28.74
568.288	28.79
568.622	28.69
568.956	28.63
569.29	28.59
569.624	28.57
569.958	28.63
570.292	28.67
570.626	28.75
570.959	28.77
571.293	28.88
571.627	28.83
571.96	28.77
572.294	28.81
572.627	28.9
572.961	28.98
573.294	28.97
573.627	29.13
573.961	29.35
574.294	29.36
574.627	29.46
574.961	29.49
575.294	29.55
575.627	29.52
575.96	29.5
576.293	29.54
576.626	29.54
576.959	29.65
577.292	29.75
577.624	29.8
577.957	29.84
578.29	29.9
578.623	29.97
578.955	29.89
579.288	29.94
579.62	29.93
579.953	30.05
580.285	30.1
580.618	30.07
580.95	30.13
581.282	30.12
581.615	30.16
581.947	30.15
582.279	30
582.611	30.05
582.943	30.05
583.275	30.12
583.607	30.28
583.939	30.4
584.271	30.48
584.603	30.62
584.935	30.71
585.267	30.72
585.598	30.76
585.93	30.92
586.262	30.99
586.593	31.09
586.925	31.11
587.256	31.29
587.588	31.39
587.919	31.61
588.25	31.7
588.582	31.79
588.913	31.93
589.244	32.1
589.575	32.31
589.907	32.46
590.238	32.55
590.569	32.74
590.9	32.92
591.231	33.05
591.562	33.11
591.892	33.14
592.223	33.43
592.554	33.49
592.885	33.51
593.215	33.65
593.546	33.82
593.877	33.95
594.207	33.92
594.538	33.94
594.868	34.01
595.198	34.38
595.529	34.56
595.859	34.71
596.189	34.75
596.52	34.96
596.85	35.08
597.18	35.34
597.51	35.34
597.84	35.32
598.17	35.48
598.5	35.6
598.83	35.87
599.16	36.09
599.489	36.25
599.819	36.35
600.149	36.54
600.479	36.47
600.808	36.72
601.138	36.89
601.467	37.02
601.797	37.37
602.126	37.53
602.456	37.87
602.785	38.16
603.114	38.49
603.443	38.53
603.773	38.66
604.102	38.84
604.431	39.09
604.76	39.08
605.089	39.26
605.418	39.43
605.747	39.67
606.076	40.03
606.405	40.13
606.733	40.44
607.062	40.64
607.391	40.73
607.72	40.92
608.048	41.32
608.377	41.48
608.705	41.94
609.034	42.33
609.362	42.79
609.69	43.16
610.019	43.18
610.347	43.51
610.675	43.7
611.004	43.86
611.332	44.09
611.66	44.4
611.988	44.55
612.316	44.79
612.644	44.89
612.972	45.29
613.3	45.66
613.627	45.93
613.955	46.16
614.283	46.39
614.611	46.64
614.938	46.87
615.266	47.18
615.593	47.62
615.921	48
616.248	47.98
616.576	48.31
616.903	48.66
617.23	49.11
617.558	49.38
617.885	49.44
618.212	49.91
618.539	50.16
618.866	50.42
619.193	50.93
619.52	50.88
619.847	50.85
620.174	51.35
620.501	51.43
620.828	51.71
621.155	51.63
621.481	51.75
621.808	51.97
622.135	52.15
622.461	52.29
622.788	52.61
623.114	52.78
623.441	52.71
623.767	52.82
624.093	52.88
624.42	53.6
624.746	53.97
625.072	54.01
625.398	54.12
625.725	54.35
626.051	54.94
626.377	55.1
626.703	55.55
627.029	55.7
627.354	55.69
627.68	56.15
628.006	56.76
628.332	56.94
628.658	57.12
628.983	57.1
629.309	57.38
629.634	57.92
629.96	57.61
630.285	58.38
630.611	58.47
630.936	58.76
631.262	58.67
631.587	59.32
631.912	59.64
632.237	60.29
632.562	60.56
632.887	60.54
633.213	60.67
633.538	60.91
633.863	60.58
634.187	60.8
634.512	61.08
634.837	60.73
635.162	61.11
635.487	61.19
635.811	61.57
636.136	61.92
636.461	62.16
636.785	62.66
637.11	63.12
637.434	63.97
637.758	63.67
638.083	64.02
638.407	63.68
638.731	64.59
639.056	65.09
639.38	65.66
639.704	65.59
640.028	66.01
640.352	65.72
640.676	65.76
641	65.98
641.324	66.49
641.648	66.14
641.972	66.87
642.295	67.02
642.619	67.05
642.943	67.22
643.266	67.28
643.59	67.15
643.913	67.05
644.237	66.72
644.56	66.45
644.884	66.31
645.207	66.49
645.53	66.64
645.854	66.86
646.177	67.02
646.5	67.58
646.823	67.52
647.146	67.11
647.469	66.74
647.792	66.52
648.115	66.52
648.438	66.6
648.761	67.56
649.084	67.3
649.406	66.7
649.729	65.59
650.052	65.02
650.374	64.73
650.697	64.46
651.019	64.4
651.342	64.48
651.664	64.54
651.987	64.35
652.309	64.31
652.631	64.61
652.953	64.59
653.276	64.52
653.598	64.39
653.92	64.36
654.242	64.59
654.564	64.46
654.886	64.29
655.208	64.34
655.53	64.44
655.851	64.43
656.173	64.36
656.495	64.67
656.816	64.04
657.138	63.78
657.46	63.49
657.781	64.56
658.103	65.63
658.424	66.47
658.746	67.2
659.067	67.77
659.388	67.36
659.709	67.48
660.031	68.28
