Data from T1_Reflection__3__21-55-39-314.txt Node

Date: Wed Jun 02 21:55:39 CEST 2021
User: mabdelazizm
Spectrometer: FLMS18565
Trigger mode: 0
Integration Time (sec): 2.000000E0
Scans to average: 1
Electric dark correction enabled: true
Nonlinearity correction enabled: false
Boxcar width: 12
XAxis mode: Wavelengths
Number of Pixels in Spectrum: 2048
>>>>>Begin Spectral Data<<<<<
179.071	113.62
179.452	152.57
179.833	116.86
180.214	98.18
180.595	349.53
180.977	219.51
181.358	88.73
181.739	105.88
182.12	120.48
182.501	165.76
182.882	128.36
183.262	137.14
183.643	88.97
184.024	31.28
184.405	16.14
184.786	13.01
185.166	3.69
185.547	11.04
185.927	1.99
186.308	8.44
186.689	8.18
187.069	9.23
187.449	11.1
187.83	12.51
188.21	12.89
188.59	9.55
188.971	9.91
189.351	7.15
189.731	8.91
190.111	13.47
190.491	13.29
190.871	12.64
191.251	13.23
191.631	11.91
192.011	9.76
192.391	8.79
192.771	8.26
193.151	8.15
193.531	9.54
193.91	10.07
194.29	9.48
194.67	9.09
195.049	8.93
195.429	10.21
195.808	9.5
196.188	9.39
196.567	9.74
196.946	8.41
197.326	7.32
197.705	7.8
198.084	8.38
198.464	8.63
198.843	9.96
199.222	7.98
199.601	6.82
199.98	5.73
200.359	6.04
200.738	6.36
201.117	6.5
201.496	6.93
201.875	6.06
202.254	7.56
202.632	7.26
203.011	7.41
203.39	6.89
203.768	7.88
204.147	9.28
204.525	8.41
204.904	8.44
205.282	8.12
205.661	7.13
206.039	7.82
206.418	8.29
206.796	8.06
207.174	8.48
207.552	9.46
207.931	9.81
208.309	9.33
208.687	9.71
209.065	9.81
209.443	10.08
209.821	9.75
210.199	9.32
210.577	9
210.954	8.39
211.332	9.32
211.71	8.58
212.088	8.86
212.465	8.38
212.843	8.2
213.221	7.64
213.598	6.91
213.976	6.23
214.353	6.7
214.731	7.21
215.108	8.11
215.485	6.61
215.863	6.66
216.24	6.91
216.617	6.9
216.994	6.23
217.371	5.76
217.749	6.18
218.126	6.64
218.503	6.12
218.88	5.89
219.256	6.51
219.633	6.73
220.01	7.44
220.387	7.91
220.764	7.44
221.14	7.04
221.517	6.87
221.894	6.78
222.27	7.19
222.647	6.97
223.023	6.99
223.4	7.36
223.776	7.25
224.153	6.65
224.529	5.96
224.905	6.63
225.282	6.52
225.658	6.33
226.034	6.18
226.41	5.94
226.786	5.88
227.162	5.56
227.538	5.72
227.914	5.65
228.29	5.53
228.666	5.14
229.042	4.88
229.418	4.61
229.793	4.65
230.169	4.59
230.545	4.61
230.92	4.57
231.296	4.56
231.672	4.31
232.047	4.19
232.422	4.04
232.798	4
233.173	3.84
233.549	3.86
233.924	3.87
234.299	3.62
234.674	3.54
235.05	3.5
235.425	3.46
235.8	3.42
236.175	3.32
236.55	3.29
236.925	3.11
237.3	3.07
237.675	3.07
238.049	3.2
238.424	3.24
238.799	3.29
239.174	3.23
239.548	3.17
239.923	3.21
240.297	3.15
240.672	3.04
241.046	3.04
241.421	3.09
241.795	3.15
242.17	3.12
242.544	3.09
242.918	3.05
243.293	3.05
243.667	3.05
244.041	3.04
244.415	3.03
244.789	2.99
245.163	3.02
245.537	3.05
245.911	3.05
246.285	3.06
246.659	3.08
247.033	3.11
247.406	3.06
247.78	3
248.154	2.9
248.528	2.85
248.901	2.85
249.275	2.85
249.648	2.82
250.022	2.91
250.395	3.01
250.769	2.98
251.142	2.93
251.515	2.89
251.888	2.83
252.262	2.74
252.635	2.72
253.008	2.74
253.381	2.71
253.754	2.69
254.127	2.64
254.5	2.6
254.873	2.52
255.246	2.51
255.619	2.53
255.992	2.51
256.364	2.52
256.737	2.55
257.11	2.56
257.483	2.55
257.855	2.56
258.228	2.53
258.6	2.47
258.973	2.45
259.345	2.42
259.718	2.33
260.09	2.31
260.462	2.3
260.834	2.28
261.207	2.36
261.579	2.51
261.951	2.55
262.323	2.53
262.695	2.48
263.067	2.52
263.439	2.52
263.811	2.52
264.183	2.53
264.555	2.47
264.927	2.46
265.298	2.46
265.67	2.41
266.042	2.35
266.413	2.33
266.785	2.34
267.156	2.33
267.528	2.37
267.899	2.34
268.271	2.37
268.642	2.33
269.013	2.35
269.385	2.36
269.756	2.37
270.127	2.38
270.498	2.35
270.87	2.28
271.241	2.2
271.612	2.16
271.983	2.17
272.354	2.16
272.724	2.21
273.095	2.25
273.466	2.24
273.837	2.3
274.208	2.23
274.578	2.2
274.949	2.23
275.32	2.24
275.69	2.27
276.061	2.25
276.431	2.23
276.802	2.16
277.172	2.19
277.542	2.13
277.913	2.13
278.283	2.11
278.653	2.04
279.023	2.03
279.394	2.01
279.764	1.96
280.134	1.89
280.504	1.92
280.874	1.92
281.244	1.91
281.614	1.8
281.983	1.77
282.353	1.74
282.723	1.76
283.093	1.79
283.462	1.8
283.832	1.8
284.202	1.72
284.571	1.68
284.941	1.64
285.31	1.63
285.68	1.66
286.049	1.62
286.418	1.59
286.788	1.61
287.157	1.57
287.526	1.59
287.895	1.65
288.264	1.63
288.633	1.63
289.002	1.65
289.371	1.65
289.74	1.65
290.109	1.68
290.478	1.7
290.847	1.76
291.216	1.72
291.585	1.67
291.953	1.61
292.322	1.56
292.691	1.55
293.059	1.54
293.428	1.58
293.796	1.62
294.165	1.66
294.533	1.62
294.901	1.64
295.27	1.68
295.638	1.69
296.006	1.65
296.374	1.66
296.743	1.61
297.111	1.57
297.479	1.57
297.847	1.57
298.215	1.52
298.583	1.54
298.95	1.52
299.318	1.52
299.686	1.52
300.054	1.51
300.422	1.54
300.789	1.64
301.157	1.67
301.525	1.67
301.892	1.68
302.26	1.7
302.627	1.69
302.994	1.65
303.362	1.61
303.729	1.64
304.097	1.56
304.464	1.54
304.831	1.54
305.198	1.57
305.565	1.57
305.932	1.57
306.299	1.56
306.666	1.52
307.033	1.5
307.4	1.56
307.767	1.55
308.134	1.54
308.501	1.52
308.867	1.48
309.234	1.47
309.601	1.47
309.967	1.47
310.334	1.46
310.701	1.4
311.067	1.4
311.433	1.36
311.8	1.4
312.166	1.37
312.533	1.4
312.899	1.33
313.265	1.4
313.631	1.41
313.997	1.42
314.363	1.37
314.729	1.39
315.096	1.39
315.461	1.39
315.827	1.38
316.193	1.35
316.559	1.33
316.925	1.34
317.291	1.36
317.656	1.35
318.022	1.42
318.388	1.42
318.753	1.38
319.119	1.33
319.484	1.3
319.85	1.33
320.215	1.36
320.581	1.34
320.946	1.26
321.311	1.26
321.676	1.2
322.042	1.24
322.407	1.23
322.772	1.2
323.137	1.19
323.502	1.23
323.867	1.24
324.232	1.28
324.597	1.29
324.962	1.35
325.327	1.41
325.691	1.41
326.056	1.41
326.421	1.37
326.785	1.33
327.15	1.22
327.514	1.25
327.879	1.23
328.243	1.25
328.608	1.27
328.972	1.27
329.337	1.24
329.701	1.27
330.065	1.32
330.429	1.29
330.794	1.36
331.158	1.35
331.522	1.33
331.886	1.38
332.25	1.32
332.614	1.29
332.978	1.23
333.342	1.24
333.705	1.28
334.069	1.21
334.433	1.23
334.797	1.19
335.16	1.16
335.524	1.17
335.887	1.19
336.251	1.28
336.614	1.26
336.978	1.26
337.341	1.26
337.705	1.3
338.068	1.3
338.431	1.3
338.794	1.34
339.158	1.31
339.521	1.35
339.884	1.29
340.247	1.26
340.61	1.27
340.973	1.23
341.336	1.3
341.699	1.34
342.062	1.37
342.424	1.36
342.787	1.31
343.15	1.34
343.512	1.29
343.875	1.29
344.238	1.29
344.6	1.34
344.963	1.34
345.325	1.27
345.688	1.21
346.05	1.17
346.412	1.09
346.775	1.07
347.137	1.05
347.499	1.05
347.861	1
348.223	0.98
348.585	0.92
348.947	0.96
349.309	0.95
349.671	0.92
350.033	0.9
350.395	0.86
350.757	0.88
351.118	0.94
351.48	0.9
351.842	0.92
352.203	0.89
352.565	0.9
352.927	0.97
353.288	1.04
353.65	0.94
354.011	0.93
354.372	0.99
354.734	1.02
355.095	1.09
355.456	1.13
355.817	1.06
356.179	1.11
356.54	1.1
356.901	1.11
357.262	1.09
357.623	1.09
357.984	1.05
358.345	1.08
358.705	1.1
359.066	1.11
359.427	1.13
359.788	1.12
360.148	1.04
360.509	0.98
360.87	0.98
361.23	1.02
361.591	1.04
361.951	1.02
362.312	1.02
362.672	0.97
363.032	0.97
363.393	0.94
363.753	0.97
364.113	0.94
364.473	0.96
364.833	1.07
365.193	1.01
365.553	1.06
365.913	1
366.273	1.03
366.633	1.11
366.993	1.07
367.353	1.05
367.713	1.03
368.072	0.97
368.432	0.96
368.792	0.96
369.151	0.94
369.511	1.01
369.87	0.95
370.23	0.94
370.589	0.88
370.949	0.83
371.308	0.77
371.667	0.84
372.027	0.84
372.386	0.84
372.745	0.8
373.104	0.77
373.463	0.72
373.822	0.64
374.181	0.67
374.54	0.59
374.899	0.58
375.258	0.55
375.617	0.52
375.975	0.62
376.334	0.65
376.693	0.64
377.052	0.67
377.41	0.7
377.769	0.66
378.127	0.66
378.486	0.65
378.844	0.67
379.202	0.66
379.561	0.72
379.919	0.72
380.277	0.76
380.636	0.84
380.994	0.86
381.352	0.83
381.71	0.84
382.068	0.86
382.426	0.9
382.784	0.95
383.142	0.95
383.5	0.97
383.857	0.99
384.215	1.01
384.573	0.95
384.931	0.87
385.288	0.91
385.646	0.91
386.003	0.9
386.361	0.86
386.718	0.84
387.076	0.87
387.433	0.85
387.791	0.83
388.148	0.87
388.505	0.88
388.862	0.87
389.22	0.89
389.577	0.83
389.934	0.83
390.291	0.86
390.648	0.86
391.005	0.88
391.362	0.92
391.718	0.89
392.075	0.91
392.432	0.91
392.789	0.94
393.145	1.01
393.502	1.05
393.859	1.09
394.215	1.14
394.572	1.19
394.928	1.2
395.285	1.24
395.641	1.24
395.997	1.25
396.354	1.32
396.71	1.35
397.066	1.35
397.422	1.35
397.778	1.37
398.134	1.36
398.491	1.36
398.846	1.35
399.202	1.39
399.558	1.47
399.914	1.49
400.27	1.52
400.626	1.5
400.981	1.46
401.337	1.49
401.693	1.57
402.048	1.56
402.404	1.67
402.759	1.72
403.115	1.66
403.47	1.62
403.826	1.7
404.181	1.8
404.536	1.9
404.892	1.94
405.247	1.91
405.602	1.99
405.957	2.02
406.312	2.06
406.667	2.1
407.022	2.15
407.377	2.23
407.732	2.37
408.087	2.39
408.442	2.36
408.796	2.44
409.151	2.44
409.506	2.6
409.86	2.72
410.215	2.83
410.57	2.85
410.924	2.92
411.279	2.88
411.633	2.97
411.987	3.14
412.342	3.22
412.696	3.3
413.05	3.31
413.404	3.33
413.758	3.44
414.113	3.59
414.467	3.65
414.821	3.77
415.175	3.86
415.529	4
415.882	4.08
416.236	4.15
416.59	4.13
416.944	4.22
417.298	4.35
417.651	4.41
418.005	4.5
418.358	4.62
418.712	4.77
419.065	4.78
419.419	4.87
419.772	4.94
420.126	5.14
420.479	5.32
420.832	5.38
421.185	5.41
421.539	5.47
421.892	5.58
422.245	5.75
422.598	5.95
422.951	6.12
423.304	6.24
423.657	6.38
424.01	6.55
424.363	6.68
424.715	6.87
425.068	7.06
425.421	7.3
425.773	7.53
426.126	7.78
426.479	7.95
426.831	8.21
427.184	8.37
427.536	8.46
427.889	8.73
428.241	9.01
428.593	9.22
428.945	9.33
429.298	9.43
429.65	9.59
430.002	9.95
430.354	10.32
430.706	10.5
431.058	10.61
431.41	10.65
431.762	10.74
432.114	10.92
432.466	11.04
432.817	11.2
433.169	11.36
433.521	11.52
433.872	11.58
434.224	11.62
434.576	11.68
434.927	11.63
435.279	11.75
435.63	11.75
435.981	11.69
436.333	11.84
436.684	11.95
437.035	11.91
437.387	11.94
437.738	12
438.089	11.97
438.44	11.96
438.791	11.84
439.142	11.78
439.493	11.81
439.844	11.87
440.195	11.8
440.545	11.79
440.896	11.74
441.247	11.77
441.598	11.7
441.948	11.74
442.299	11.75
442.649	11.84
443	11.89
443.35	11.87
443.701	11.96
444.051	11.99
444.401	12.05
444.752	12.18
445.102	12.1
445.452	11.97
445.802	11.99
446.152	11.98
446.502	12.05
446.852	12.12
447.202	12.17
447.552	12.22
447.902	12.15
448.252	12.11
448.602	12.26
448.952	12.4
449.301	12.49
449.651	12.62
450.001	12.8
450.35	12.88
450.7	12.96
451.049	12.96
451.399	13.03
451.748	13.13
452.097	13.26
452.447	13.46
452.796	13.56
453.145	13.66
453.494	13.78
453.843	13.96
454.193	14.28
454.542	14.45
454.891	14.67
455.239	14.76
455.588	15
455.937	15.36
456.286	15.68
456.635	16.08
456.984	16.36
457.332	16.43
457.681	16.51
458.03	16.7
458.378	16.82
458.727	16.93
459.075	17.08
459.423	17.21
459.772	17.37
460.12	17.47
460.468	17.55
460.817	17.79
461.165	17.75
461.513	17.8
461.861	18.11
462.209	18.12
462.557	18.19
462.905	18.19
463.253	18.27
463.601	18.27
463.949	18.34
464.297	18.35
464.644	18.18
464.992	18.12
465.34	18.04
465.687	17.98
466.035	17.9
466.383	17.87
466.73	17.91
467.078	18
467.425	17.78
467.772	17.73
468.12	17.63
468.467	17.63
468.814	17.63
469.161	17.5
469.508	17.23
469.856	17.14
470.203	17.05
470.55	16.72
470.897	16.59
471.243	16.48
471.59	16.24
471.937	16.09
472.284	16
472.631	15.82
472.977	15.69
473.324	15.56
473.671	15.45
474.017	15.35
474.364	15.26
474.71	15.21
475.057	15.19
475.403	14.91
475.749	14.68
476.096	14.63
476.442	14.58
476.788	14.54
477.134	14.49
477.48	14.4
477.826	14.49
478.172	14.64
478.518	14.62
478.864	14.67
479.21	14.72
479.556	14.86
479.902	14.97
480.248	15.05
480.593	15.21
480.939	15.39
481.285	15.6
481.63	15.77
481.976	15.94
482.321	16.07
482.667	16.22
483.012	16.4
483.357	16.67
483.703	16.92
484.048	17.3
484.393	17.58
484.738	17.93
485.084	18.27
485.429	18.66
485.774	18.97
486.119	19.37
486.464	19.74
486.808	20.1
487.153	20.62
487.498	21.02
487.843	21.47
488.188	22.02
488.532	22.53
488.877	23.24
489.222	23.81
489.566	24.36
489.911	24.95
490.255	25.58
490.6	26.24
490.944	27.03
491.288	27.79
491.633	28.49
491.977	29.13
492.321	29.81
492.665	30.52
493.009	31.32
493.353	32.09
493.697	32.77
494.041	33.51
494.385	34.3
494.729	34.97
495.073	35.7
495.417	36.43
495.76	37.07
496.104	37.91
496.448	38.58
496.791	39.27
497.135	40.02
497.479	40.64
497.822	41.31
498.165	41.94
498.509	42.64
498.852	43.35
499.196	44.06
499.539	44.61
499.882	45.12
500.225	45.74
500.568	46.34
500.911	46.8
501.254	47.36
501.597	47.85
501.94	48.35
502.283	48.87
502.626	49.34
502.969	49.78
503.312	50.25
503.654	50.67
503.997	51.12
504.34	51.52
504.682	51.79
505.025	52.3
505.367	52.68
505.71	53.1
506.052	53.49
506.395	53.78
506.737	54.24
507.079	54.59
507.421	54.99
507.764	55.38
508.106	55.7
508.448	56.03
508.79	56.3
509.132	56.54
509.474	56.97
509.816	57.17
510.158	57.37
510.499	57.55
510.841	57.68
511.183	57.79
511.525	57.98
511.866	58.08
512.208	58.33
512.549	58.48
512.891	58.76
513.232	59.13
513.574	59.34
513.915	59.54
514.256	59.63
514.598	59.78
514.939	60.14
515.28	60.36
515.621	60.43
515.962	60.58
516.303	60.68
516.644	60.84
516.985	60.89
517.326	61.1
517.667	61.28
518.008	61.36
518.349	61.39
518.69	61.42
519.03	61.49
519.371	61.7
519.712	62.02
520.052	62.16
520.393	62.56
520.733	62.61
521.074	62.74
521.414	62.85
521.754	62.75
522.095	62.79
522.435	63.02
522.775	63.24
523.115	63.41
523.455	63.32
523.795	63.33
524.135	63.54
524.475	63.43
524.815	63.64
525.155	63.7
525.495	63.9
525.835	63.82
526.175	63.78
526.514	63.78
526.854	63.99
527.194	64.21
527.533	64.33
527.873	64.3
528.212	64.32
528.552	64.41
528.891	64.26
529.23	64.44
529.57	64.61
529.909	64.78
530.248	64.96
530.587	65.02
530.927	64.87
531.266	64.84
531.605	64.94
531.944	64.99
532.283	65.06
532.621	65.04
532.96	65.1
533.299	65.01
533.638	65.09
533.977	64.97
534.315	65.07
534.654	65.16
534.992	65.26
535.331	65.34
535.67	65.41
536.008	65.34
536.346	65.48
536.685	65.31
537.023	65.27
537.361	65.35
537.7	65.31
538.038	65.23
538.376	65.09
538.714	65.16
539.052	65.3
539.39	65.38
539.728	65.4
540.066	65.37
540.404	65.27
540.741	65.18
541.079	65.08
541.417	65.12
541.755	65.16
542.092	65.07
542.43	65.14
542.767	65.07
543.105	65.13
543.442	65.14
543.78	65.13
544.117	65.08
544.454	65.16
544.792	65.25
545.129	65.42
545.466	65.31
545.803	65.32
546.14	65.29
546.477	65.2
546.814	65.27
547.151	65.16
547.488	64.99
547.825	65.04
548.162	65.11
548.499	64.99
548.835	64.94
549.172	64.99
549.509	65.24
549.845	65.35
550.182	65.22
550.518	65.37
550.855	65.36
551.191	65.44
551.528	65.6
551.864	65.44
552.2	65.43
552.537	65.46
552.873	65.46
553.209	65.29
553.545	65.21
553.881	65.33
554.217	65.2
554.553	65.24
554.889	65.37
555.225	65.36
555.561	65.48
555.896	65.52
556.232	65.26
556.568	65.24
556.903	65.32
557.239	65.46
557.575	65.53
557.91	65.5
558.245	65.45
558.581	65.54
558.916	65.65
559.252	65.76
559.587	65.69
559.922	65.46
560.257	65.72
560.592	65.69
560.928	65.82
561.263	66.14
561.598	65.99
561.933	65.86
562.267	65.82
562.602	65.87
562.937	65.74
563.272	65.73
563.607	65.68
563.941	65.68
564.276	65.67
564.611	65.9
564.945	65.87
565.28	65.91
565.614	66.03
565.949	65.95
566.283	65.87
566.617	65.97
566.951	65.97
567.286	65.93
567.62	65.86
567.954	65.87
568.288	65.93
568.622	65.9
568.956	65.87
569.29	65.76
569.624	65.66
569.958	65.66
570.292	65.77
570.626	66
570.959	66.1
571.293	66.18
571.627	66.1
571.96	66.08
572.294	66.01
572.627	66.05
572.961	65.96
573.294	66.05
573.627	66.16
573.961	66.11
574.294	66.21
574.627	66.33
574.961	66.26
575.294	66.24
575.627	66.23
575.96	66.33
576.293	66.33
576.626	66.21
576.959	66.14
577.292	66.13
577.624	66.18
577.957	66.01
578.29	66.16
578.623	66.19
578.955	66.01
579.288	65.89
579.62	65.88
579.953	66
580.285	66.14
580.618	66.17
580.95	66.25
581.282	66.3
581.615	66.24
581.947	66.11
582.279	66.13
582.611	66.03
582.943	65.99
583.275	66.03
583.607	66.02
583.939	66.01
584.271	65.82
584.603	65.91
584.935	66.02
585.267	66.15
585.598	66.22
585.93	66.3
586.262	66.42
586.593	66.42
586.925	66.41
587.256	66.47
587.588	66.65
587.919	66.7
588.25	66.6
588.582	66.47
588.913	66.64
589.244	66.56
589.575	66.75
589.907	66.9
590.238	66.97
590.569	67.02
590.9	67.07
591.231	67.13
591.562	67.14
591.892	67.2
592.223	67.24
592.554	67.24
592.885	67.18
593.215	67.2
593.546	67.14
593.877	67.06
594.207	67.01
594.538	66.86
594.868	66.87
595.198	66.98
595.529	67.02
595.859	67.11
596.189	66.96
596.52	67.05
596.85	66.97
597.18	66.84
597.51	66.67
597.84	66.47
598.17	66.36
598.5	66.39
598.83	66.4
599.16	66.39
599.489	66.25
599.819	66.11
600.149	66.22
600.479	66.11
600.808	66.18
601.138	66.09
601.467	66.08
601.797	66.05
602.126	66.09
602.456	65.99
602.785	66.21
603.114	66.16
603.443	66.15
603.773	66.07
604.102	65.93
604.431	66.04
604.76	65.93
605.089	66.11
605.418	66.02
605.747	66.17
606.076	66.12
606.405	65.8
606.733	65.52
607.062	65.67
607.391	65.47
607.72	65.47
608.048	65.47
608.377	65.37
608.705	65.46
609.034	65.55
609.362	65.72
609.69	65.72
610.019	65.68
610.347	65.71
610.675	65.63
611.004	65.62
611.332	65.68
611.66	65.73
611.988	65.62
612.316	65.63
612.644	65.69
612.972	65.81
613.3	65.73
613.627	65.77
613.955	65.7
614.283	65.8
614.611	66.16
614.938	66.54
615.266	66.27
615.593	66.63
615.921	66.56
616.248	66.52
616.576	66.41
616.903	66.42
617.23	66.4
617.558	66.5
617.885	66.37
618.212	66.39
618.539	66.35
618.866	66.26
619.193	66.38
619.52	66.13
619.847	65.79
620.174	65.68
620.501	65.57
620.828	65.42
621.155	65.27
621.481	65.25
621.808	65.29
622.135	65.45
622.461	65.52
622.788	65.58
623.114	65.52
623.441	65.53
623.767	65.34
624.093	65.73
624.42	65.86
624.746	66.12
625.072	66.22
625.398	66.37
625.725	66.26
626.051	66.26
626.377	66.39
626.703	66.6
627.029	67.03
627.354	66.72
627.68	67.09
628.006	67.42
628.332	67.77
628.658	67.83
628.983	68.14
629.309	68.07
629.634	68.32
629.96	67.86
630.285	68.18
630.611	68.15
630.936	68.19
631.262	68.03
631.587	67.75
631.912	68.05
632.237	68.29
632.562	68.56
632.887	68.74
633.213	68.36
633.538	68.15
633.863	67.32
634.187	67.62
634.512	67.57
634.837	67.4
635.162	67.06
635.487	67.05
635.811	66.96
636.136	67.19
636.461	67.37
636.785	67.19
637.11	66.74
637.434	67.14
637.758	66.76
638.083	66.86
638.407	66.53
638.731	67
639.056	67.3
639.38	67.38
639.704	67.25
640.028	67.04
640.352	66.2
640.676	66.13
641	65.53
641.324	65.38
641.648	65.1
641.972	65.7
642.295	65.96
642.619	66.05
642.943	65.7
643.266	65.86
643.59	66.39
643.913	66.14
644.237	65.52
644.56	65.34
644.884	65.69
645.207	65.76
645.53	65.34
645.854	65.15
646.177	65.37
646.5	64.83
646.823	64.8
647.146	64.46
647.469	64.05
647.792	64.3
648.115	64.43
648.438	64.49
648.761	64.51
649.084	64.57
649.406	65.31
649.729	65.26
650.052	65.15
650.374	64.85
650.697	64.56
651.019	64.71
651.342	64.74
651.664	64.69
651.987	64.61
652.309	64.85
652.631	65.17
652.953	65.13
653.276	65.28
653.598	65.3
653.92	65.35
654.242	65.69
654.564	65.91
654.886	65.67
655.208	65.47
655.53	65.62
655.851	65.64
656.173	65.77
656.495	66.04
656.816	66.15
657.138	66.52
657.46	66.37
657.781	66.93
658.103	67.35
658.424	68.1
658.746	68.97
659.067	68.68
659.388	68.75
659.709	67.97
660.031	68.11
660.352	67.59
660.673	66.61
660.994	67.01
