Data from T1_Reflection__74__23-12-33-167.txt Node

Date: Wed Jun 02 23:12:33 CEST 2021
User: mabdelazizm
Spectrometer: FLMS18565
Trigger mode: 0
Integration Time (sec): 2.000000E0
Scans to average: 1
Electric dark correction enabled: true
Nonlinearity correction enabled: false
Boxcar width: 12
XAxis mode: Wavelengths
Number of Pixels in Spectrum: 2048
>>>>>Begin Spectral Data<<<<<
179.071	-220.74
179.452	-356.13
179.833	-230.8
180.214	-260
180.595	-2425.23
180.977	-971.54
181.358	-435.73
181.739	-1017.65
182.12	-426.04
182.501	-389.49
182.882	-156.52
183.262	-265.71
183.643	-139.16
184.024	-43.21
184.405	-3.8
184.786	19.73
185.166	8.92
185.547	8.52
185.927	2.4
186.308	13.31
186.689	18.75
187.069	18.15
187.449	12.2
187.83	11.6
188.21	8.26
188.59	7.14
188.971	8.42
189.351	8.56
189.731	12.62
190.111	13.21
190.491	13.93
190.871	10.27
191.251	12.11
191.631	12.92
192.011	10.63
192.391	9.94
192.771	11.47
193.151	12.11
193.531	12.6
193.91	10.63
194.29	8.77
194.67	8.38
195.049	7.89
195.429	7.68
195.808	6.24
196.188	4.84
196.567	4.56
196.946	6.4
197.326	5.55
197.705	6.71
198.084	6.24
198.464	6.62
198.843	6.07
199.222	4.44
199.601	4.54
199.98	3.55
200.359	4
200.738	4.3
201.117	3.55
201.496	5.17
201.875	3.99
202.254	4.04
202.632	3.72
203.011	2.92
203.39	3.24
203.768	4.01
204.147	4.9
204.525	5.08
204.904	5.6
205.282	4.71
205.661	3.95
206.039	5.12
206.418	4.9
206.796	6
207.174	5.11
207.552	5.72
207.931	5.05
208.309	5.57
208.687	5.77
209.065	5.8
209.443	5.31
209.821	5.37
210.199	4.23
210.577	4.01
210.954	2.78
211.332	3.26
211.71	2.67
212.088	2.8
212.465	2.56
212.843	2.22
213.221	2.45
213.598	3.03
213.976	2.87
214.353	2.68
214.731	3.22
215.108	3.87
215.485	2.24
215.863	1.63
216.24	0.66
216.617	1.63
216.994	1.98
217.371	1.52
217.749	1.1
218.126	1.53
218.503	0.85
218.88	0.61
219.256	0.69
219.633	0.76
220.01	1.44
220.387	2.18
220.764	1.83
221.14	2.24
221.517	2.59
221.894	2.25
222.27	2.93
222.647	2.89
223.023	2.24
223.4	2.35
223.776	2.26
224.153	2.22
224.529	1.97
224.905	2.99
225.282	3.16
225.658	3.2
226.034	2.89
226.41	2.71
226.786	2.97
227.162	2.98
227.538	2.9
227.914	2.85
228.29	2.95
228.666	2.73
229.042	2.6
229.418	2.41
229.793	2.22
230.169	2.35
230.545	2.24
230.92	2.05
231.296	1.99
231.672	2.02
232.047	1.82
232.422	1.84
232.798	1.67
233.173	1.49
233.549	1.38
233.924	1.3
234.299	0.86
234.674	0.9
235.05	0.9
235.425	0.91
235.8	0.81
236.175	0.69
236.55	0.63
236.925	0.55
237.3	0.6
237.675	0.55
238.049	0.67
238.424	0.75
238.799	0.74
239.174	0.81
239.548	0.72
239.923	0.68
240.297	0.69
240.672	0.69
241.046	0.58
241.421	0.6
241.795	0.58
242.17	0.59
242.544	0.55
242.918	0.63
243.293	0.71
243.667	0.8
244.041	0.73
244.415	0.76
244.789	0.71
245.163	0.73
245.537	0.76
245.911	0.79
246.285	0.81
246.659	0.84
247.033	0.87
247.406	0.82
247.78	0.77
248.154	0.75
248.528	0.68
248.901	0.68
249.275	0.66
249.648	0.69
250.022	0.76
250.395	0.73
250.769	0.69
251.142	0.73
251.515	0.73
251.888	0.75
252.262	0.7
252.635	0.61
253.008	0.63
253.381	0.55
253.754	0.5
254.127	0.55
254.5	0.55
254.873	0.43
255.246	0.42
255.619	0.43
255.992	0.39
256.364	0.42
256.737	0.41
257.11	0.42
257.483	0.43
257.855	0.44
258.228	0.45
258.6	0.48
258.973	0.45
259.345	0.45
259.718	0.41
260.09	0.42
260.462	0.4
260.834	0.38
261.207	0.43
261.579	0.44
261.951	0.44
262.323	0.38
262.695	0.42
263.067	0.46
263.439	0.44
263.811	0.43
264.183	0.47
264.555	0.42
264.927	0.43
265.298	0.44
265.67	0.38
266.042	0.37
266.413	0.35
266.785	0.34
267.156	0.3
267.528	0.23
267.899	0.17
268.271	0.16
268.642	0.12
269.013	0.16
269.385	0.2
269.756	0.21
270.127	0.18
270.498	0.14
270.87	0.1
271.241	0.11
271.612	0.11
271.983	0.1
272.354	0.03
272.724	0.03
273.095	0.03
273.466	0.02
273.837	0.1
274.208	0.04
274.578	-0.01
274.949	0.01
275.32	0.03
275.69	0.03
276.061	0.02
276.431	0.02
276.802	0.05
277.172	0.14
277.542	0.13
277.913	0.12
278.283	0.11
278.653	0.07
279.023	0.09
279.394	0.12
279.764	0.11
280.134	0.14
280.504	0.16
280.874	0.16
281.244	0.11
281.614	0.11
281.983	0.17
282.353	0.16
282.723	0.17
283.093	0.15
283.462	0.18
283.832	0.21
284.202	0.19
284.571	0.15
284.941	0.12
285.31	0.16
285.68	0.15
286.049	0.16
286.418	0.05
286.788	0.12
287.157	0.08
287.526	0.08
287.895	0.08
288.264	0.07
288.633	0.02
289.002	0.04
289.371	0.02
289.74	0.04
290.109	0.02
290.478	0.08
290.847	0.11
291.216	0.06
291.585	0.04
291.953	0.03
292.322	0.02
292.691	-0.03
293.059	-0.05
293.428	-0.09
293.796	-0.08
294.165	-0.05
294.533	-0.06
294.901	-0.02
295.27	-0.06
295.638	-0.04
296.006	-0.1
296.374	-0.11
296.743	-0.13
297.111	-0.13
297.479	-0.18
297.847	-0.18
298.215	-0.25
298.583	-0.23
298.95	-0.27
299.318	-0.24
299.686	-0.25
300.054	-0.27
300.422	-0.28
300.789	-0.28
301.157	-0.3
301.525	-0.29
301.892	-0.21
302.26	-0.16
302.627	-0.15
302.994	-0.16
303.362	-0.22
303.729	-0.26
304.097	-0.29
304.464	-0.3
304.831	-0.27
305.198	-0.28
305.565	-0.24
305.932	-0.24
306.299	-0.18
306.666	-0.17
307.033	-0.15
307.4	-0.08
307.767	-0.12
308.134	-0.08
308.501	-0.09
308.867	-0.14
309.234	-0.1
309.601	-0.12
309.967	-0.07
310.334	0.01
310.701	-0.08
311.067	-0.18
311.433	-0.19
311.8	-0.13
312.166	-0.13
312.533	-0.03
312.899	-0.02
313.265	-0.03
313.631	-0.01
313.997	0.03
314.363	-0.01
314.729	0
315.096	-0.03
315.461	-0.12
315.827	-0.14
316.193	-0.17
316.559	-0.13
316.925	-0.11
317.291	-0.15
317.656	-0.15
318.022	-0.07
318.388	-0.13
318.753	-0.17
319.119	-0.25
319.484	-0.3
319.85	-0.24
320.215	-0.26
320.581	-0.29
320.946	-0.36
321.311	-0.39
321.676	-0.42
322.042	-0.42
322.407	-0.39
322.772	-0.32
323.137	-0.3
323.502	-0.29
323.867	-0.29
324.232	-0.2
324.597	-0.16
324.962	-0.05
325.327	-0.02
325.691	-0.02
326.056	0.01
326.421	0.01
326.785	-0.04
327.15	-0.08
327.514	-0.07
327.879	-0.04
328.243	-0
328.608	0.02
328.972	0.08
329.337	0.14
329.701	0.17
330.065	0.23
330.429	0.25
330.794	0.24
331.158	0.25
331.522	0.23
331.886	0.17
332.25	0.03
332.614	0.05
332.978	0.06
333.342	0.03
333.705	0.01
334.069	-0.05
334.433	-0.03
334.797	-0.09
335.16	-0.12
335.524	-0.14
335.887	-0.11
336.251	-0.1
336.614	-0.06
336.978	-0.09
337.341	-0.09
337.705	-0.11
338.068	-0.04
338.431	-0
338.794	-0.03
339.158	-0.1
339.521	-0.1
339.884	-0.13
340.247	-0.12
340.61	-0.13
340.973	-0.12
341.336	-0.03
341.699	-0.01
342.062	-0.03
342.424	-0.03
342.787	-0.08
343.15	-0.1
343.512	-0.23
343.875	-0.25
344.238	-0.27
344.6	-0.17
344.963	-0.12
345.325	-0.18
345.688	-0.25
346.05	-0.24
346.412	-0.28
346.775	-0.24
347.137	-0.35
347.499	-0.38
347.861	-0.32
348.223	-0.29
348.585	-0.31
348.947	-0.27
349.309	-0.35
349.671	-0.37
350.033	-0.32
350.395	-0.38
350.757	-0.41
351.118	-0.39
351.48	-0.4
351.842	-0.32
352.203	-0.37
352.565	-0.26
352.927	-0.17
353.288	-0.16
353.65	-0.27
354.011	-0.32
354.372	-0.24
354.734	-0.17
355.095	-0.15
355.456	-0.1
355.817	-0.17
356.179	-0.19
356.54	-0.23
356.901	-0.25
357.262	-0.26
357.623	-0.28
357.984	-0.3
358.345	-0.22
358.705	-0.25
359.066	-0.34
359.427	-0.28
359.788	-0.22
360.148	-0.23
360.509	-0.29
360.87	-0.35
361.23	-0.33
361.591	-0.34
361.951	-0.36
362.312	-0.32
362.672	-0.29
363.032	-0.29
363.393	-0.28
363.753	-0.31
364.113	-0.37
364.473	-0.37
364.833	-0.25
365.193	-0.18
365.553	-0.13
365.913	-0.21
366.273	-0.21
366.633	-0.1
366.993	-0.14
367.353	-0.17
367.713	-0.14
368.072	-0.13
368.432	-0.19
368.792	-0.2
369.151	-0.25
369.511	-0.25
369.87	-0.22
370.23	-0.15
370.589	-0.13
370.949	-0.16
371.308	-0.23
371.667	-0.25
372.027	-0.21
372.386	-0.22
372.745	-0.22
373.104	-0.19
373.463	-0.2
373.822	-0.26
374.181	-0.3
374.54	-0.31
374.899	-0.27
375.258	-0.3
375.617	-0.33
375.975	-0.23
376.334	-0.18
376.693	-0.12
377.052	-0.12
377.41	-0.09
377.769	-0.06
378.127	-0.06
378.486	-0.01
378.844	0.04
379.202	0.02
379.561	0.01
379.919	0.04
380.277	0.12
380.636	0.21
380.994	0.22
381.352	0.16
381.71	0.19
382.068	0.26
382.426	0.27
382.784	0.28
383.142	0.3
383.5	0.31
383.857	0.4
384.215	0.45
384.573	0.41
384.931	0.32
385.288	0.33
385.646	0.29
386.003	0.27
386.361	0.32
386.718	0.28
387.076	0.34
387.433	0.32
387.791	0.3
388.148	0.39
388.505	0.46
388.862	0.42
389.22	0.43
389.577	0.41
389.934	0.46
390.291	0.6
390.648	0.63
391.005	0.71
391.362	0.74
391.718	0.83
392.075	0.85
392.432	0.93
392.789	0.91
393.145	1.04
393.502	1.1
393.859	1.22
394.215	1.33
394.572	1.48
394.928	1.65
395.285	1.78
395.641	1.88
395.997	1.97
396.354	2.24
396.71	2.4
397.066	2.49
397.422	2.64
397.778	2.89
398.134	3.01
398.491	3.19
398.846	3.36
399.202	3.56
399.558	3.86
399.914	4
400.27	4.26
400.626	4.42
400.981	4.6
401.337	4.8
401.693	5.11
402.048	5.36
402.404	5.73
402.759	6.01
403.115	6.25
403.47	6.52
403.826	6.84
404.181	7.13
404.536	7.42
404.892	7.78
405.247	8.04
405.602	8.37
405.957	8.64
406.312	8.99
406.667	9.27
407.022	9.67
407.377	10.05
407.732	10.44
408.087	10.76
408.442	11.03
408.796	11.35
409.151	11.7
409.506	12.19
409.86	12.65
410.215	13.05
410.57	13.49
410.924	13.94
411.279	14.31
411.633	14.76
411.987	15.26
412.342	15.7
412.696	16.11
413.05	16.63
413.404	17.12
413.758	17.71
414.113	18.19
414.467	18.71
414.821	19.23
415.175	19.69
415.529	20.29
415.882	20.74
416.236	21.18
416.59	21.59
416.944	22.12
417.298	22.76
417.651	23.24
418.005	23.74
418.358	24.23
418.712	24.76
419.065	25.29
419.419	25.7
419.772	26.04
420.126	26.51
420.479	27.03
420.832	27.36
421.185	27.7
421.539	28.17
421.892	28.57
422.245	29.02
422.598	29.34
422.951	29.74
423.304	30.17
423.657	30.51
424.01	31.02
424.363	31.36
424.715	31.9
425.068	32.35
425.421	32.8
425.773	33.12
426.126	33.49
426.479	33.94
426.831	34.23
427.184	34.57
427.536	34.88
427.889	35.17
428.241	35.56
428.593	35.97
428.945	36.31
429.298	36.63
429.65	37.09
430.002	37.57
430.354	37.91
430.706	38.16
431.058	38.47
431.41	38.77
431.762	39.03
432.114	39.26
432.466	39.64
432.817	39.74
433.169	40.11
433.521	40.37
433.872	40.63
434.224	40.8
434.576	41.08
434.927	41.17
435.279	41.41
435.63	41.69
435.981	41.86
436.333	42.18
436.684	42.47
437.035	42.58
437.387	42.76
437.738	42.85
438.089	42.91
438.44	43.03
438.791	43
439.142	43.14
439.493	43.29
439.844	43.37
440.195	43.53
440.545	43.64
440.896	43.69
441.247	43.81
441.598	44.04
441.948	44.09
442.299	44.21
442.649	44.3
443	44.51
443.35	44.58
443.701	44.75
444.051	44.8
444.401	44.72
444.752	44.79
445.102	44.61
445.452	44.61
445.802	44.69
446.152	44.7
446.502	44.84
446.852	44.98
447.202	44.87
447.552	45.01
447.902	44.87
448.252	44.88
448.602	46.43
448.952	46.43
449.301	46.42
449.651	46.55
450.001	46.48
450.35	46.41
450.7	46.42
451.049	46.34
451.399	46.39
451.748	46.33
452.097	46.24
452.447	46.28
452.796	46.11
453.145	46.36
453.494	46.26
453.843	46.29
454.193	46.3
454.542	46.17
454.891	46.09
455.239	45.97
455.588	45.96
455.937	46.13
456.286	46.12
456.635	46.32
456.984	46.35
457.332	44.56
457.681	44.45
458.03	44.34
458.378	44.12
458.727	44.16
459.075	44.24
459.423	44.11
459.772	44.04
460.12	43.91
460.468	43.72
460.817	43.88
461.165	43.78
461.513	43.91
461.861	43.84
462.209	43.85
462.557	43.74
462.905	43.67
463.253	43.61
463.601	43.53
463.949	43.51
464.297	43.2
464.644	43.03
464.992	42.91
465.34	42.61
465.687	42.39
466.035	42.28
466.383	42.18
466.73	42.09
467.078	42.16
467.425	42
467.772	41.7
468.12	41.49
468.467	41.37
468.814	41.37
469.161	41.34
469.508	41.03
469.856	40.81
470.203	40.54
470.55	40.2
470.897	39.89
471.243	39.87
471.59	39.57
471.937	39.45
472.284	39.4
472.631	39.2
472.977	39.16
473.324	38.89
473.671	38.63
474.017	38.56
474.364	38.33
474.71	38.16
475.057	38.03
475.403	37.8
475.749	37.47
476.096	37.25
476.442	37.17
476.788	37.05
477.134	36.86
477.48	36.6
477.826	36.45
478.172	36.23
478.518	35.9
478.864	35.7
479.21	35.67
479.556	35.6
479.902	35.37
480.248	35.13
480.593	34.94
480.939	34.7
481.285	34.52
481.63	34.32
481.976	34.21
482.321	34.02
482.667	33.79
483.012	33.57
483.357	33.41
483.703	33.28
484.048	33.27
484.393	33.11
484.738	33.07
485.084	32.93
485.429	32.78
485.774	32.64
486.119	32.45
486.464	32.32
486.808	32.24
487.153	32.23
487.498	31.99
487.843	31.71
488.188	31.52
488.532	31.29
488.877	31.16
489.222	30.99
489.566	30.85
489.911	30.62
490.255	30.36
490.6	30.17
490.944	30.08
491.288	29.9
491.633	29.83
491.977	29.68
492.321	29.49
492.665	29.23
493.009	29.09
493.353	28.83
493.697	28.67
494.041	28.47
494.385	28.36
494.729	28.19
495.073	27.9
495.417	27.73
495.76	27.56
496.104	27.53
496.448	27.41
496.791	27.24
497.135	27.03
497.479	26.9
497.822	26.75
498.165	26.54
498.509	26.37
498.852	26.21
499.196	26.01
499.539	25.82
499.882	25.74
500.225	25.57
500.568	25.43
500.911	25.25
501.254	25.15
501.597	25.08
501.94	24.96
502.283	24.76
502.626	24.64
502.969	24.48
503.312	24.36
503.654	24.27
503.997	24.1
504.34	23.86
504.682	23.66
505.025	23.5
505.367	23.25
505.71	23.15
506.052	23.03
506.395	22.91
506.737	22.77
507.079	22.73
507.421	22.71
507.764	22.6
508.106	22.48
508.448	22.39
508.79	22.27
509.132	22.11
509.474	21.9
509.816	21.66
510.158	21.38
510.499	21.22
510.841	21.06
511.183	20.87
511.525	20.66
511.866	20.58
512.208	20.47
512.549	20.33
512.891	20.35
513.232	20.29
513.574	20.19
513.915	20.18
514.256	19.93
514.598	19.84
514.939	19.69
515.28	19.56
515.621	19.47
515.962	19.24
516.303	19.14
516.644	19.07
516.985	18.89
517.326	18.86
517.667	18.73
518.008	18.73
518.349	18.71
518.69	18.61
519.03	18.5
519.371	18.46
519.712	18.4
520.052	18.34
520.393	18.2
520.733	18.07
521.074	17.98
521.414	17.81
521.754	17.58
522.095	17.59
522.435	17.51
522.775	17.61
523.115	17.5
523.455	17.36
523.795	17.29
524.135	17.14
524.475	17.15
524.815	17.07
525.155	16.91
525.495	16.81
525.835	16.76
526.175	16.73
526.514	16.67
526.854	16.65
527.194	16.63
527.533	16.5
527.873	16.32
528.212	16.25
528.552	16.19
528.891	16.13
529.23	16.12
529.57	16.11
529.909	16.12
530.248	16.12
530.587	15.95
530.927	15.86
531.266	15.74
531.605	15.65
531.944	15.6
532.283	15.52
532.621	15.43
532.96	15.37
533.299	15.39
533.638	15.37
533.977	15.28
534.315	15.06
534.654	15.05
534.992	15.01
535.331	14.83
535.67	14.7
536.008	14.6
536.346	14.53
536.685	14.46
537.023	14.32
537.361	14.23
537.7	14.12
538.038	13.96
538.376	13.77
538.714	13.71
539.052	13.61
539.39	13.57
539.728	13.62
540.066	13.53
540.404	13.5
540.741	13.39
541.079	13.27
541.417	13.13
541.755	12.93
542.092	12.83
542.43	12.84
542.767	12.89
543.105	12.76
543.442	12.71
543.78	12.67
544.117	12.76
544.454	12.8
544.792	12.81
545.129	12.86
545.466	12.9
545.803	12.81
546.14	12.68
546.477	12.72
546.814	12.67
547.151	12.65
547.488	12.74
547.825	12.77
548.162	12.76
548.499	12.83
548.835	12.76
549.172	12.8
549.509	12.9
549.845	12.96
550.182	13.03
550.518	13.1
550.855	13.02
551.191	12.99
551.528	13.11
551.864	13
552.2	13.02
552.537	12.96
552.873	12.92
553.209	12.99
553.545	12.95
553.881	12.93
554.217	12.93
554.553	12.95
554.889	12.93
555.225	12.96
555.561	13.02
555.896	12.93
556.232	12.93
556.568	12.72
556.903	12.7
557.239	12.74
557.575	12.81
557.91	12.82
558.245	12.9
558.581	12.96
558.916	12.97
559.252	13.23
559.587	13.22
559.922	13.12
560.257	13.23
560.592	13.34
560.928	13.42
561.263	13.74
561.598	13.67
561.933	13.69
562.267	13.87
562.602	14.07
562.937	14.09
563.272	14.15
563.607	14.23
563.941	14.33
564.276	14.37
564.611	14.39
564.945	14.58
565.28	14.56
565.614	14.65
565.949	14.73
566.283	14.76
566.617	14.86
566.951	14.86
567.286	14.91
567.62	14.94
567.954	15.05
568.288	15.16
568.622	15.21
568.956	15.18
569.29	15.22
569.624	15.07
569.958	15.16
570.292	15.21
570.626	15.28
570.959	15.25
571.293	15.41
571.627	15.44
571.96	15.54
572.294	15.63
572.627	15.69
572.961	15.8
573.294	15.86
573.627	15.97
573.961	16.04
574.294	16.16
574.627	16.27
574.961	16.3
575.294	16.4
575.627	16.44
575.96	16.48
576.293	16.51
576.626	16.54
576.959	16.61
577.292	16.75
577.624	16.86
577.957	17.02
578.29	17.15
578.623	17.26
578.955	17.21
579.288	17.3
579.62	17.34
579.953	17.54
580.285	17.65
580.618	17.7
580.95	17.79
581.282	17.8
581.615	17.95
581.947	18.06
582.279	18.19
582.611	18.24
582.943	18.3
583.275	18.42
583.607	18.61
583.939	18.8
584.271	18.88
584.603	19.05
584.935	19.18
585.267	19.25
585.598	19.32
585.93	19.39
586.262	19.48
586.593	19.64
586.925	19.63
587.256	19.84
587.588	20.05
587.919	20.32
588.25	20.39
588.582	20.48
588.913	20.56
589.244	20.75
589.575	20.91
589.907	20.95
590.238	21.09
590.569	21.21
590.9	21.35
591.231	21.53
591.562	21.61
591.892	21.74
592.223	21.92
592.554	22.01
592.885	22.21
593.215	22.41
593.546	22.51
593.877	22.58
594.207	22.71
594.538	22.85
594.868	22.94
595.198	23.23
595.529	23.42
595.859	23.56
596.189	23.58
596.52	23.66
596.85	23.82
597.18	24.03
597.51	24.19
597.84	24.27
598.17	24.48
598.5	24.66
598.83	24.78
599.16	25
599.489	25.15
599.819	25.3
600.149	25.4
600.479	25.56
600.808	25.76
601.138	25.87
601.467	25.94
601.797	26.3
602.126	26.57
602.456	26.74
602.785	26.93
603.114	27.26
603.443	27.62
603.773	27.82
604.102	28.1
604.431	28.31
604.76	28.66
605.089	28.77
605.418	28.99
605.747	29.25
606.076	29.54
606.405	29.62
606.733	29.85
607.062	30.2
607.391	30.3
607.72	30.57
608.048	30.88
608.377	31.19
608.705	31.53
609.034	31.89
609.362	32.32
609.69	32.78
610.019	33.06
610.347	33.34
610.675	33.73
611.004	33.99
611.332	34.22
611.66	34.43
611.988	34.68
612.316	34.87
612.644	35.21
612.972	35.3
613.3	35.67
613.627	36.08
613.955	36.4
614.283	36.84
614.611	37.27
614.938	37.39
615.266	37.66
615.593	38.19
615.921	38.6
616.248	38.72
616.576	39.19
616.903	39.63
617.23	40.1
617.558	40.57
617.885	41.09
618.212	41.39
618.539	41.81
618.866	42.04
619.193	42.33
619.52	42.45
619.847	42.57
620.174	42.86
620.501	43.07
620.828	43.27
621.155	43.49
621.481	43.92
621.808	44.2
622.135	44.27
622.461	44.5
622.788	44.83
623.114	45.25
623.441	45.44
623.767	45.59
624.093	45.99
624.42	46.79
624.746	47.41
625.072	47.63
625.398	48.27
625.725	48.7
626.051	48.85
626.377	49.65
626.703	50.16
627.029	50.92
627.354	51.73
627.68	52.49
628.006	53.25
628.332	53.79
628.658	54.03
628.983	54.42
629.309	55.17
629.634	55.67
629.96	55.39
630.285	56.43
630.611	56.74
630.936	57.23
631.262	57.74
631.587	58.51
631.912	58.87
632.237	59.62
632.562	60.12
632.887	60.07
633.213	60.39
633.538	60.84
633.863	60.54
634.187	60.65
634.512	60.7
634.837	60.32
635.162	60.42
635.487	60.21
635.811	60.61
636.136	61.23
636.461	61.63
636.785	61.89
637.11	62.56
637.434	63.1
637.758	63.38
638.083	64.13
638.407	63.99
638.731	64.4
639.056	64.83
639.38	65.21
639.704	64.97
640.028	66.16
640.352	65.93
640.676	65.87
641	65.58
641.324	65.48
641.648	65.05
641.972	65.08
642.295	65.4
642.619	66.09
642.943	66.61
643.266	66.9
643.59	67.63
643.913	67.29
644.237	66.89
644.56	66.81
644.884	67.2
645.207	66.95
645.53	67.55
645.854	67.65
646.177	68.24
646.5	68.54
646.823	68.45
647.146	68.49
647.469	68.01
647.792	68.38
648.115	68.17
648.438	68.87
648.761	70.21
649.084	71.29
649.406	71.2
649.729	70.49
650.052	70.06
650.374	70.03
650.697	69.76
651.019	69.88
651.342	69.81
651.664	69.65
651.987	69.57
652.309	69.6
652.631	69.89
652.953	70.04
653.276	70.08
653.598	69.81
653.92	69.77
654.242	69.86
654.564	69.77
