Data from T1_Reflection__35__22-41-03-226.txt Node

Date: Wed Jun 02 22:41:03 CEST 2021
User: mabdelazizm
Spectrometer: FLMS18565
Trigger mode: 0
Integration Time (sec): 2.000000E0
Scans to average: 1
Electric dark correction enabled: true
Nonlinearity correction enabled: false
Boxcar width: 12
XAxis mode: Wavelengths
Number of Pixels in Spectrum: 2048
>>>>>Begin Spectral Data<<<<<
179.071	-58.9
179.452	-104.35
179.833	-66.92
180.214	-60
180.595	-971.96
180.977	-312.2
181.358	-157.31
181.739	-447.06
182.12	-130.42
182.501	-99.61
182.882	-20.7
183.262	-66.67
183.643	-28.4
184.024	-8.48
184.405	-3.56
184.786	8.5
185.166	-1.38
185.547	4.11
185.927	-5.73
186.308	10.29
186.689	15.64
187.069	8.8
187.449	7.52
187.83	5.83
188.21	3.61
188.59	1.89
188.971	3.06
189.351	3.19
189.731	4.55
190.111	6.88
190.491	8.59
190.871	8.51
191.251	9.81
191.631	9.25
192.011	8.09
192.391	7.08
192.771	6.84
193.151	6.73
193.531	6.62
193.91	6.97
194.29	4.1
194.67	4.7
195.049	4.73
195.429	6.46
195.808	4.69
196.188	3.83
196.567	4.05
196.946	4.76
197.326	5.13
197.705	5.38
198.084	5.27
198.464	5.64
198.843	6.26
199.222	6.23
199.601	6.16
199.98	4.79
200.359	4.72
200.738	4.95
201.117	4.81
201.496	5.19
201.875	4.4
202.254	5.19
202.632	5.36
203.011	4.65
203.39	4.31
203.768	6.23
204.147	7
204.525	6.36
204.904	6.23
205.282	5.41
205.661	4.95
206.039	6.43
206.418	6.13
206.796	6.51
207.174	6.76
207.552	7.33
207.931	6.48
208.309	6.01
208.687	5.58
209.065	6.11
209.443	6.21
209.821	5.99
210.199	5.38
210.577	4.64
210.954	3.79
211.332	4.65
211.71	5.02
212.088	4.84
212.465	5.73
212.843	5.9
213.221	4.79
213.598	5.01
213.976	4.72
214.353	5.25
214.731	6.06
215.108	6.53
215.485	4.83
215.863	5.32
216.24	5.1
216.617	5.47
216.994	5.46
217.371	5.74
217.749	6.34
218.126	6.28
218.503	5.31
218.88	5.11
219.256	4.98
219.633	4.84
220.01	5.81
220.387	6.57
220.764	6.31
221.14	6.11
221.517	6.21
221.894	5.62
222.27	6.06
222.647	6.24
223.023	5.57
223.4	5.77
223.776	5.78
224.153	5.31
224.529	4.87
224.905	5.35
225.282	5.31
225.658	5.13
226.034	4.99
226.41	4.8
226.786	4.91
227.162	4.49
227.538	4.45
227.914	4.45
228.29	4.29
228.666	4.19
229.042	4.23
229.418	4
229.793	3.7
230.169	3.81
230.545	3.73
230.92	3.77
231.296	3.88
231.672	3.81
232.047	3.68
232.422	3.85
232.798	3.75
233.173	3.63
233.549	3.68
233.924	3.65
234.299	3.42
234.674	3.41
235.05	3.24
235.425	3.24
235.8	3.22
236.175	3.03
236.55	3.05
236.925	3
237.3	2.98
237.675	2.91
238.049	2.96
238.424	2.98
238.799	2.99
239.174	3.08
239.548	2.97
239.923	2.92
240.297	2.79
240.672	2.69
241.046	2.58
241.421	2.63
241.795	2.49
242.17	2.48
242.544	2.41
242.918	2.32
243.293	2.39
243.667	2.47
244.041	2.41
244.415	2.43
244.789	2.37
245.163	2.33
245.537	2.38
245.911	2.4
246.285	2.43
246.659	2.47
247.033	2.54
247.406	2.5
247.78	2.42
248.154	2.37
248.528	2.33
248.901	2.32
249.275	2.36
249.648	2.42
250.022	2.49
250.395	2.46
250.769	2.39
251.142	2.5
251.515	2.5
251.888	2.47
252.262	2.45
252.635	2.39
253.008	2.32
253.381	2.26
253.754	2.29
254.127	2.31
254.5	2.29
254.873	2.2
255.246	2.16
255.619	2.16
255.992	2.11
256.364	2.14
256.737	2.16
257.11	2.16
257.483	2.14
257.855	2.12
258.228	2.09
258.6	2.03
258.973	2
259.345	1.98
259.718	1.93
260.09	1.96
260.462	1.89
260.834	1.83
261.207	1.87
261.579	1.92
261.951	1.89
262.323	1.87
262.695	1.84
263.067	1.81
263.439	1.8
263.811	1.8
264.183	1.82
264.555	1.75
264.927	1.7
265.298	1.7
265.67	1.59
266.042	1.52
266.413	1.5
266.785	1.53
267.156	1.49
267.528	1.46
267.899	1.42
268.271	1.37
268.642	1.37
269.013	1.41
269.385	1.46
269.756	1.47
270.127	1.52
270.498	1.46
270.87	1.43
271.241	1.42
271.612	1.42
271.983	1.43
272.354	1.44
272.724	1.4
273.095	1.46
273.466	1.48
273.837	1.53
274.208	1.51
274.578	1.47
274.949	1.51
275.32	1.53
275.69	1.51
276.061	1.5
276.431	1.48
276.802	1.48
277.172	1.57
277.542	1.6
277.913	1.56
278.283	1.57
278.653	1.45
279.023	1.41
279.394	1.37
279.764	1.39
280.134	1.36
280.504	1.43
280.874	1.43
281.244	1.39
281.614	1.4
281.983	1.43
282.353	1.38
282.723	1.4
283.093	1.39
283.462	1.42
283.832	1.46
284.202	1.49
284.571	1.5
284.941	1.44
285.31	1.44
285.68	1.51
286.049	1.5
286.418	1.39
286.788	1.41
287.157	1.35
287.526	1.31
287.895	1.32
288.264	1.34
288.633	1.33
289.002	1.31
289.371	1.35
289.74	1.26
290.109	1.26
290.478	1.28
290.847	1.28
291.216	1.28
291.585	1.24
291.953	1.18
292.322	1.15
292.691	1.09
293.059	1.04
293.428	0.96
293.796	0.97
294.165	1.04
294.533	0.97
294.901	0.95
295.27	0.98
295.638	0.99
296.006	0.93
296.374	0.98
296.743	0.99
297.111	1
297.479	0.98
297.847	0.94
298.215	0.94
298.583	0.93
298.95	0.96
299.318	0.97
299.686	0.95
300.054	0.92
300.422	0.86
300.789	0.89
301.157	0.91
301.525	0.91
301.892	0.95
302.26	1.02
302.627	1.04
302.994	1
303.362	0.98
303.729	1.03
304.097	1.03
304.464	1
304.831	0.99
305.198	0.99
305.565	1.01
305.932	1.01
306.299	1.03
306.666	1.06
307.033	1.07
307.4	1.11
307.767	1.06
308.134	1.05
308.501	1.04
308.867	1.04
309.234	1.04
309.601	1.07
309.967	1.07
310.334	1.1
310.701	1.06
311.067	1.02
311.433	0.95
311.8	0.99
312.166	1.02
312.533	1.1
312.899	1.03
313.265	0.99
313.631	0.98
313.997	0.98
314.363	0.94
314.729	0.95
315.096	0.85
315.461	0.84
315.827	0.77
316.193	0.78
316.559	0.76
316.925	0.78
317.291	0.78
317.656	0.79
318.022	0.8
318.388	0.77
318.753	0.75
319.119	0.74
319.484	0.65
319.85	0.69
320.215	0.68
320.581	0.69
320.946	0.66
321.311	0.63
321.676	0.52
322.042	0.57
322.407	0.6
322.772	0.61
323.137	0.63
323.502	0.63
323.867	0.62
324.232	0.7
324.597	0.7
324.962	0.8
325.327	0.81
325.691	0.82
326.056	0.88
326.421	0.83
326.785	0.78
327.15	0.73
327.514	0.78
327.879	0.83
328.243	0.84
328.608	0.88
328.972	0.85
329.337	0.89
329.701	0.88
330.065	0.9
330.429	0.88
330.794	0.87
331.158	0.84
331.522	0.8
331.886	0.82
332.25	0.73
332.614	0.79
332.978	0.79
333.342	0.79
333.705	0.8
334.069	0.74
334.433	0.75
334.797	0.72
335.16	0.63
335.524	0.66
335.887	0.68
336.251	0.75
336.614	0.75
336.978	0.69
337.341	0.65
337.705	0.72
338.068	0.81
338.431	0.79
338.794	0.81
339.158	0.83
339.521	0.81
339.884	0.83
340.247	0.82
340.61	0.81
340.973	0.81
341.336	0.91
341.699	0.89
342.062	0.86
342.424	0.86
342.787	0.82
343.15	0.83
343.512	0.84
343.875	0.82
344.238	0.81
344.6	0.87
344.963	0.91
345.325	0.9
345.688	0.8
346.05	0.84
346.412	0.84
346.775	0.83
347.137	0.78
347.499	0.76
347.861	0.76
348.223	0.74
348.585	0.76
348.947	0.81
349.309	0.82
349.671	0.8
350.033	0.73
350.395	0.68
350.757	0.69
351.118	0.74
351.48	0.72
351.842	0.77
352.203	0.77
352.565	0.75
352.927	0.81
353.288	0.82
353.65	0.7
354.011	0.64
354.372	0.6
354.734	0.66
355.095	0.68
355.456	0.64
355.817	0.6
356.179	0.61
356.54	0.67
356.901	0.67
357.262	0.57
357.623	0.53
357.984	0.51
358.345	0.55
358.705	0.55
359.066	0.56
359.427	0.6
359.788	0.62
360.148	0.6
360.509	0.54
360.87	0.57
361.23	0.56
361.591	0.62
361.951	0.59
362.312	0.73
362.672	0.75
363.032	0.77
363.393	0.85
363.753	0.86
364.113	0.8
364.473	0.85
364.833	0.87
365.193	0.82
365.553	0.78
365.913	0.76
366.273	0.88
366.633	1
366.993	0.95
367.353	0.89
367.713	0.92
368.072	0.93
368.432	0.9
368.792	0.9
369.151	0.82
369.511	0.85
369.87	0.76
370.23	0.78
370.589	0.7
370.949	0.66
371.308	0.52
371.667	0.59
372.027	0.66
372.386	0.62
372.745	0.57
373.104	0.58
373.463	0.6
373.822	0.55
374.181	0.58
374.54	0.5
374.899	0.52
375.258	0.45
375.617	0.35
375.975	0.45
376.334	0.52
376.693	0.54
377.052	0.52
377.41	0.51
377.769	0.51
378.127	0.57
378.486	0.65
378.844	0.67
379.202	0.71
379.561	0.75
379.919	0.83
380.277	0.9
380.636	0.93
380.994	0.83
381.352	0.84
381.71	0.88
382.068	1
382.426	1.03
382.784	1.08
383.142	1.12
383.5	1.19
383.857	1.2
384.215	1.24
384.573	1.22
384.931	1.09
385.288	1.1
385.646	1.08
386.003	1.14
386.361	1.2
386.718	1.22
387.076	1.25
387.433	1.24
387.791	1.26
388.148	1.27
388.505	1.26
388.862	1.18
389.22	1.3
389.577	1.34
389.934	1.43
390.291	1.47
390.648	1.54
391.005	1.48
391.362	1.48
391.718	1.54
392.075	1.61
392.432	1.75
392.789	1.78
393.145	1.96
393.502	2.09
393.859	2.28
394.215	2.41
394.572	2.54
394.928	2.65
395.285	2.73
395.641	2.8
395.997	2.88
396.354	3.03
396.71	3.27
397.066	3.41
397.422	3.61
397.778	3.81
398.134	3.85
398.491	4.02
398.846	4.23
399.202	4.41
399.558	4.59
399.914	4.74
400.27	4.99
400.626	5.16
400.981	5.29
401.337	5.46
401.693	5.73
402.048	5.88
402.404	6.13
402.759	6.35
403.115	6.52
403.47	6.79
403.826	7.02
404.181	7.3
404.536	7.53
404.892	7.89
405.247	8.11
405.602	8.3
405.957	8.58
406.312	8.88
406.667	9.26
407.022	9.62
407.377	9.84
407.732	10.14
408.087	10.44
408.442	10.7
408.796	10.97
409.151	11.13
409.506	11.48
409.86	11.74
410.215	12.01
410.57	12.38
410.924	12.68
411.279	12.91
411.633	13.17
411.987	13.44
412.342	13.71
412.696	13.93
413.05	14.27
413.404	14.58
413.758	14.91
414.113	15.19
414.467	15.43
414.821	15.65
415.175	15.85
415.529	16.01
415.882	16.2
416.236	16.53
416.59	16.68
416.944	16.87
417.298	17.14
417.651	17.34
418.005	17.63
418.358	17.78
418.712	18
419.065	18.19
419.419	18.27
419.772	18.43
420.126	18.76
420.479	18.99
420.832	19.26
421.185	19.35
421.539	19.57
421.892	19.73
422.245	19.94
422.598	20.11
422.951	20.29
423.304	20.5
423.657	20.64
424.01	20.88
424.363	21.07
424.715	21.38
425.068	21.54
425.421	21.83
425.773	22.05
426.126	22.31
426.479	22.64
426.831	22.81
427.184	23.03
427.536	23.18
427.889	23.34
428.241	23.68
428.593	23.76
428.945	23.85
429.298	24.04
429.65	24.09
430.002	24.35
430.354	24.56
430.706	24.59
431.058	24.66
431.41	24.6
431.762	24.68
432.114	24.74
432.466	24.86
432.817	24.88
433.169	24.92
433.521	24.82
433.872	24.71
434.224	24.56
434.576	24.55
434.927	24.28
435.279	24.16
435.63	24.06
435.981	23.94
436.333	23.92
436.684	23.81
437.035	23.47
437.387	23.33
437.738	23.11
438.089	22.77
438.44	22.65
438.791	22.34
439.142	22.05
439.493	21.94
439.844	21.81
440.195	21.68
440.545	21.49
440.896	21.37
441.247	21.27
441.598	21.08
441.948	20.88
442.299	20.79
442.649	20.75
443	20.67
443.35	20.56
443.701	20.6
444.051	20.5
444.401	20.38
444.752	20.27
445.102	20.16
445.452	20.03
445.802	19.98
446.152	20.02
446.502	20.02
446.852	20.1
447.202	20.12
447.552	20.14
447.902	20.21
448.252	20.24
448.602	20.45
448.952	20.49
449.301	20.54
449.651	20.63
450.001	20.61
450.35	20.69
450.7	20.93
451.049	21.02
451.399	21.17
451.748	21.3
452.097	21.35
452.447	21.54
452.796	21.73
453.145	22.05
453.494	22.25
453.843	22.53
454.193	22.91
454.542	23.17
454.891	23.3
455.239	23.59
455.588	23.88
455.937	24.23
456.286	24.54
456.635	24.86
456.984	25.11
457.332	25.07
457.681	25.33
458.03	25.63
458.378	25.74
458.727	26
459.075	26.2
459.423	26.43
459.772	26.6
460.12	26.67
460.468	26.91
460.817	27.38
461.165	27.48
461.513	27.59
461.861	27.71
462.209	27.71
462.557	27.74
462.905	27.68
463.253	27.74
463.601	27.81
463.949	27.77
464.297	27.68
464.644	27.45
464.992	27.51
465.34	27.46
465.687	27.29
466.035	27.15
466.383	27.04
466.73	26.94
467.078	26.91
467.425	26.69
467.772	26.53
468.12	26.24
468.467	26.04
468.814	25.96
469.161	25.66
469.508	25.24
469.856	24.97
470.203	24.67
470.55	24.36
470.897	24.11
471.243	23.93
471.59	23.68
471.937	23.55
472.284	23.36
472.631	23.24
472.977	23.08
473.324	23.04
473.671	22.69
474.017	22.42
474.364	22.3
474.71	22.18
475.057	22.02
475.403	21.73
475.749	21.5
476.096	21.44
476.442	21.37
476.788	21.3
477.134	21.31
477.48	21.23
477.826	21.26
478.172	21.35
478.518	21.41
478.864	21.52
479.21	21.6
479.556	21.89
479.902	22
480.248	22.15
480.593	22.33
480.939	22.58
481.285	22.87
481.63	23.13
481.976	23.31
482.321	23.67
482.667	23.98
483.012	24.3
483.357	24.71
483.703	25.1
484.048	25.66
484.393	26.07
484.738	26.58
485.084	26.94
485.429	27.43
485.774	27.9
486.119	28.47
486.464	29.01
486.808	29.44
487.153	30
487.498	30.61
487.843	31.21
488.188	31.85
488.532	32.46
488.877	33.25
489.222	33.9
489.566	34.51
489.911	35.09
490.255	35.71
490.6	36.39
490.944	37
491.288	37.68
491.633	38.28
491.977	38.92
492.321	39.57
492.665	40.03
493.009	40.71
493.353	41.19
493.697	41.83
494.041	42.37
494.385	42.87
494.729	43.3
495.073	43.76
495.417	44.23
495.76	44.68
496.104	45.07
496.448	45.37
496.791	45.63
497.135	46.08
497.479	46.36
497.822	46.69
498.165	46.97
498.509	47.31
498.852	47.63
499.196	48.06
499.539	48.33
499.882	48.56
500.225	48.83
500.568	48.93
500.911	49
501.254	49.19
501.597	49.39
501.94	49.62
502.283	49.76
502.626	49.86
502.969	50.01
503.312	50.1
503.654	50.19
503.997	50.28
504.34	50.24
504.682	50.4
505.025	50.62
505.367	50.82
505.71	50.89
506.052	51.01
506.395	51.02
506.737	51.14
507.079	51.13
507.421	51.19
507.764	51.09
508.106	51
508.448	51
508.79	50.95
509.132	50.97
509.474	51.04
509.816	51.03
510.158	50.85
510.499	50.69
510.841	50.64
511.183	50.64
511.525	50.54
511.866	50.44
512.208	50.43
512.549	50.43
512.891	50.5
513.232	50.43
513.574	50.36
513.915	50.19
514.256	50.07
514.598	50.02
514.939	50.09
515.28	50.09
515.621	50.11
515.962	50.07
516.303	50.11
516.644	50.22
516.985	50.16
517.326	50.17
517.667	50.09
518.008	49.95
518.349	49.91
518.69	49.88
519.03	49.78
519.371	49.75
519.712	49.82
520.052	49.84
520.393	49.92
520.733	49.78
521.074	49.76
521.414	49.7
521.754	49.48
522.095	49.38
522.435	49.47
522.775	49.47
523.115	49.46
523.455	49.31
523.795	49.19
524.135	49.06
524.475	49.07
524.815	48.98
525.155	48.83
525.495	48.68
525.835	48.62
526.175	48.64
526.514	48.67
526.854	48.73
527.194	48.75
527.533	48.86
527.873	48.72
528.212	48.55
528.552	48.35
528.891	48.21
529.23	48.19
529.57	48.1
529.909	48.02
530.248	48.21
530.587	48.24
530.927	48.12
531.266	48.09
531.605	47.95
531.944	47.91
532.283	47.85
532.621	47.78
532.96	47.71
533.299	47.74
533.638	47.87
533.977	47.84
534.315	47.81
534.654	47.79
534.992	47.65
535.331	47.38
535.67	47.28
536.008	47.04
536.346	47.08
536.685	46.95
537.023	46.99
537.361	47
537.7	47.02
538.038	46.92
538.376	46.8
538.714	46.76
539.052	46.64
539.39	46.51
539.728	46.52
540.066	46.62
540.404	46.46
540.741	46.46
541.079	46.34
541.417	46.3
541.755	46.09
542.092	45.86
542.43	45.64
542.767	45.47
543.105	45.46
543.442	45.48
543.78	45.56
544.117	45.63
544.454	45.66
544.792	45.6
545.129	45.72
545.466	45.72
545.803	45.67
546.14	45.36
546.477	45.35
546.814	45.42
547.151	45.16
547.488	45.19
547.825	45.29
548.162	45.24
548.499	45.08
548.835	45.09
549.172	45.03
549.509	45.08
549.845	45
550.182	45.08
550.518	45.25
550.855	45.56
551.191	45.68
551.528	45.57
551.864	45.5
552.2	45.47
552.537	45.36
552.873	45.37
553.209	45.36
553.545	45.28
553.881	45.18
554.217	45.09
554.553	45.23
554.889	45.26
555.225	45.3
555.561	45.56
555.896	45.62
556.232	45.48
556.568	45.47
556.903	45.51
557.239	45.51
557.575	45.47
557.91	45.67
558.245	45.66
558.581	45.7
558.916	45.62
559.252	45.56
559.587	45.53
559.922	45.52
560.257	45.7
560.592	45.78
560.928	45.83
561.263	46.04
561.598	45.9
561.933	45.82
562.267	46.1
562.602	46.19
562.937	46.46
563.272	46.45
563.607	46.5
563.941	46.34
564.276	46.41
564.611	46.72
564.945	46.84
565.28	46.8
565.614	46.92
565.949	47.21
566.283	47.24
566.617	47.46
566.951	47.48
567.286	47.51
567.62	47.69
567.954	47.89
568.288	47.94
568.622	47.87
568.956	47.9
569.29	47.98
569.624	47.91
569.958	48.07
570.292	48.21
570.626	48.26
570.959	48.38
571.293	48.38
571.627	48.54
571.96	48.55
572.294	48.61
572.627	48.56
572.961	48.47
573.294	48.48
573.627	48.67
573.961	48.7
574.294	48.77
574.627	48.78
574.961	48.82
575.294	48.74
575.627	48.69
575.96	48.64
576.293	48.58
576.626	48.63
576.959	48.7
577.292	48.79
577.624	48.92
577.957	49.03
578.29	49.19
578.623	49.32
578.955	49.26
579.288	49.3
579.62	49.38
579.953	49.41
580.285	49.57
580.618	49.78
580.95	49.91
581.282	50.02
581.615	50.11
581.947	50.05
582.279	50.14
582.611	50.1
582.943	50.21
583.275	50.21
583.607	50.57
583.939	50.8
584.271	50.96
584.603	51.08
584.935	51.2
585.267	51.25
585.598	51.4
585.93	51.4
586.262	51.45
586.593	51.48
586.925	51.46
587.256	51.51
587.588	51.47
587.919	51.47
588.25	51.49
588.582	51.46
588.913	51.49
589.244	51.5
589.575	51.65
589.907	51.72
590.238	51.86
590.569	51.95
590.9	52.1
591.231	52.14
591.562	52.16
591.892	52.05
592.223	52.22
592.554	52.27
592.885	52.4
593.215	52.41
593.546	52.55
593.877	52.48
594.207	52.47
594.538	52.43
594.868	52.42
595.198	52.52
595.529	52.77
595.859	53.05
596.189	53.14
596.52	53.32
596.85	53.51
597.18	53.67
597.51	53.77
597.84	53.83
598.17	53.84
598.5	53.94
598.83	53.98
599.16	54.02
599.489	54.11
599.819	54.2
600.149	54.29
600.479	54.26
600.808	54.39
601.138	54.49
601.467	54.67
601.797	54.7
602.126	54.8
602.456	54.96
602.785	55.25
603.114	55.49
603.443	55.83
603.773	56.12
604.102	56.23
604.431	56.44
604.76	56.53
605.089	56.58
605.418	56.47
605.747	56.55
606.076	56.55
606.405	56.71
606.733	56.74
607.062	57.12
607.391	57.14
607.72	57.29
608.048	57.39
608.377	57.66
608.705	57.7
609.034	57.85
609.362	58.11
609.69	58.28
610.019	58.57
610.347	58.93
610.675	58.95
611.004	59.07
611.332	59.17
611.66	59.26
611.988	58.95
612.316	58.87
612.644	58.87
612.972	58.93
613.3	58.87
613.627	59.27
613.955	59.41
614.283	59.74
614.611	59.86
614.938	60.13
615.266	60.09
615.593	60.48
615.921	60.65
616.248	60.86
616.576	60.93
616.903	61.53
617.23	61.93
617.558	62.36
617.885	62.66
618.212	62.74
618.539	62.74
618.866	62.83
619.193	62.93
619.52	62.95
619.847	62.76
620.174	62.95
620.501	63.29
620.828	63.25
621.155	63.32
621.481	63.76
621.808	63.82
622.135	64.16
622.461	64.11
622.788	64.57
623.114	64.77
623.441	64.92
623.767	65.03
624.093	65.3
624.42	65.63
624.746	66.21
625.072	66.04
625.398	66.14
625.725	65.83
626.051	65.77
626.377	66.18
626.703	66.68
627.029	67.43
627.354	67.65
627.68	68.13
628.006	68.37
628.332	68.82
628.658	68.76
628.983	69.15
629.309	69.45
629.634	69.93
629.96	69.5
630.285	69.75
630.611	69.96
630.936	69.89
631.262	70.12
631.587	70.21
631.912	70.3
632.237	70.78
632.562	70.89
632.887	71
633.213	70.88
633.538	70.84
633.863	70.66
634.187	70.66
634.512	70.91
634.837	70.54
635.162	70.24
635.487	70.05
635.811	69.85
636.136	70.8
636.461	70.86
636.785	71.08
637.11	71.52
637.434	71.8
637.758	71.28
638.083	71.56
638.407	71.65
638.731	72.28
639.056	72.33
639.38	72.57
639.704	72.19
640.028	72.4
640.352	71.56
640.676	71.42
641	70.96
641.324	71.21
641.648	71.15
641.972	71.79
642.295	71.85
642.619	72.24
642.943	72.21
643.266	72.59
643.59	73.21
643.913	73.37
644.237	72.47
644.56	72.21
644.884	72.13
645.207	72.01
645.53	71.73
645.854	72.49
646.177	72.64
646.5	72.86
646.823	72.28
647.146	72.41
647.469	71.72
647.792	71.99
648.115	72.21
648.438	72.7
648.761	73.85
649.084	74.46
649.406	74.54
649.729	73.11
650.052	72.64
650.374	72.57
650.697	72.04
651.019	72.02
651.342	72.01
651.664	71.94
651.987	71.89
652.309	71.98
652.631	72.05
652.953	72.31
653.276	72.37
653.598	72.43
653.92	72.17
654.242	72.29
654.564	72.1
654.886	72.09
655.208	72.15
655.53	72.23
655.851	72.17
656.173	72.29
656.495	72.25
656.816	71.72
657.138	71.19
657.46	70.86
657.781	72.48
658.103	73.61
658.424	74.53
658.746	75.36
659.067	76.25
659.388	76.67
659.709	76.52
660.031	76.83
660.352	77.29
