Data from T1_Reflection__18__22-05-49-295.txt Node

Date: Wed Jun 02 22:05:49 CEST 2021
User: mabdelazizm
Spectrometer: FLMS18565
Trigger mode: 0
Integration Time (sec): 2.000000E0
Scans to average: 1
Electric dark correction enabled: true
Nonlinearity correction enabled: false
Boxcar width: 12
XAxis mode: Wavelengths
Number of Pixels in Spectrum: 2048
>>>>>Begin Spectral Data<<<<<
179.071	-89.33
179.452	-192.89
179.833	-94.3
180.214	-110.91
180.595	-1547.66
180.977	-813.01
181.358	-335.73
181.739	-776.47
182.12	-243.34
182.501	-329.96
182.882	-131.34
183.262	-179.05
183.643	-86.5
184.024	-34.64
184.405	-19.03
184.786	-9.82
185.166	-19.19
185.547	-11.75
185.927	-12.84
186.308	-10.38
186.689	-7.74
187.069	-9.25
187.449	-9.9
187.83	-8.7
188.21	-7.54
188.59	-11.45
188.971	-7.49
189.351	-10.13
189.731	-6.05
190.111	-2.13
190.491	1.96
190.871	-0.42
191.251	0.66
191.631	-0.53
192.011	0.46
192.391	0.11
192.771	0.96
193.151	0.35
193.531	0.39
193.91	0.1
194.29	-0.06
194.67	-0.18
195.049	-0.83
195.429	-0.55
195.808	0.2
196.188	0.34
196.567	1.92
196.946	1.96
197.326	2.17
197.705	1.3
198.084	1.35
198.464	0.96
198.843	2.55
199.222	1.22
199.601	0.91
199.98	-0.33
200.359	-0.35
200.738	-0.13
201.117	0.55
201.496	0.7
201.875	-1.18
202.254	-1.38
202.632	-0.64
203.011	-0.63
203.39	-0.51
203.768	0.12
204.147	0.83
204.525	1.06
204.904	0.78
205.282	0.4
205.661	-0.3
206.039	-0.42
206.418	0.26
206.796	1.24
207.174	2.6
207.552	3.6
207.931	3.53
208.309	3.7
208.687	4.16
209.065	4.6
209.443	3.89
209.821	3.71
210.199	4.01
210.577	3.13
210.954	3.16
211.332	4.18
211.71	4.62
212.088	5.26
212.465	5.65
212.843	5.02
213.221	4.42
213.598	4.77
213.976	4.87
214.353	5.32
214.731	5.38
215.108	5.04
215.485	4.32
215.863	4.01
216.24	3.09
216.617	2.63
216.994	1.97
217.371	1.62
217.749	1.19
218.126	1.35
218.503	0.44
218.88	0.6
219.256	0.88
219.633	0.6
220.01	0.97
220.387	1.32
220.764	1.3
221.14	0.94
221.517	1.05
221.894	0.64
222.27	1.84
222.647	2.04
223.023	1.53
223.4	1.61
223.776	2.01
224.153	1.79
224.529	1.99
224.905	2.54
225.282	2.7
225.658	2.81
226.034	2.41
226.41	2.44
226.786	2.39
227.162	2.28
227.538	2.31
227.914	2.35
228.29	2.32
228.666	1.99
229.042	1.91
229.418	1.93
229.793	1.74
230.169	1.84
230.545	1.84
230.92	1.68
231.296	1.63
231.672	1.34
232.047	1.27
232.422	1.35
232.798	1.1
233.173	0.92
233.549	0.98
233.924	0.85
234.299	0.56
234.674	0.54
235.05	0.47
235.425	0.64
235.8	0.46
236.175	0.47
236.55	0.53
236.925	0.44
237.3	0.52
237.675	0.47
238.049	0.55
238.424	0.59
238.799	0.58
239.174	0.57
239.548	0.47
239.923	0.5
240.297	0.46
240.672	0.44
241.046	0.37
241.421	0.43
241.795	0.38
242.17	0.43
242.544	0.32
242.918	0.23
243.293	0.29
243.667	0.39
244.041	0.35
244.415	0.37
244.789	0.29
245.163	0.45
245.537	0.44
245.911	0.33
246.285	0.34
246.659	0.33
247.033	0.37
247.406	0.37
247.78	0.29
248.154	0.28
248.528	0.26
248.901	0.23
249.275	0.23
249.648	0.24
250.022	0.28
250.395	0.35
250.769	0.3
251.142	0.37
251.515	0.33
251.888	0.34
252.262	0.35
252.635	0.36
253.008	0.36
253.381	0.34
253.754	0.3
254.127	0.31
254.5	0.22
254.873	0.14
255.246	0.16
255.619	0.14
255.992	0.12
256.364	0.16
256.737	0.2
257.11	0.24
257.483	0.2
257.855	0.19
258.228	0.19
258.6	0.14
258.973	0.16
259.345	0.17
259.718	0.13
260.09	0.13
260.462	0.07
260.834	0.05
261.207	0.05
261.579	0.08
261.951	0.05
262.323	-0.02
262.695	-0.01
263.067	0.03
263.439	0.03
263.811	0.08
264.183	0.14
264.555	0.14
264.927	0.11
265.298	0.11
265.67	0.05
266.042	-0.02
266.413	-0.02
266.785	0.01
267.156	0.02
267.528	0.05
267.899	0.02
268.271	0.01
268.642	-0
269.013	0.02
269.385	0.04
269.756	0.03
270.127	0.06
270.498	0.06
270.87	0.02
271.241	-0.01
271.612	0.03
271.983	-0.02
272.354	-0.05
272.724	0.01
273.095	0.02
273.466	0.03
273.837	0.09
274.208	0.05
274.578	0.04
274.949	0.03
275.32	0.05
275.69	0.02
276.061	-0.04
276.431	-0.05
276.802	-0.09
277.172	-0.04
277.542	-0.01
277.913	-0.03
278.283	-0.08
278.653	-0.12
279.023	-0.08
279.394	-0.11
279.764	-0.11
280.134	-0.13
280.504	-0.08
280.874	-0.08
281.244	-0.05
281.614	-0.06
281.983	-0.08
282.353	-0.08
282.723	-0.07
283.093	-0.12
283.462	-0.1
283.832	-0.09
284.202	-0.06
284.571	-0.06
284.941	-0.08
285.31	-0.04
285.68	-0.04
286.049	-0.01
286.418	-0.05
286.788	-0.11
287.157	-0.15
287.526	-0.13
287.895	-0.09
288.264	-0.12
288.633	-0.15
289.002	-0.15
289.371	-0.12
289.74	-0.14
290.109	-0.16
290.478	-0.14
290.847	-0.16
291.216	-0.19
291.585	-0.27
291.953	-0.34
292.322	-0.35
292.691	-0.37
293.059	-0.4
293.428	-0.46
293.796	-0.45
294.165	-0.37
294.533	-0.38
294.901	-0.33
295.27	-0.3
295.638	-0.31
296.006	-0.31
296.374	-0.26
296.743	-0.27
297.111	-0.3
297.479	-0.28
297.847	-0.23
298.215	-0.28
298.583	-0.28
298.95	-0.28
299.318	-0.26
299.686	-0.29
300.054	-0.3
300.422	-0.31
300.789	-0.24
301.157	-0.19
301.525	-0.14
301.892	-0.09
302.26	-0.04
302.627	0
302.994	-0
303.362	-0.11
303.729	-0.12
304.097	-0.16
304.464	-0.24
304.831	-0.26
305.198	-0.27
305.565	-0.27
305.932	-0.32
306.299	-0.27
306.666	-0.3
307.033	-0.31
307.4	-0.28
307.767	-0.32
308.134	-0.32
308.501	-0.35
308.867	-0.36
309.234	-0.33
309.601	-0.32
309.967	-0.29
310.334	-0.25
310.701	-0.37
311.067	-0.4
311.433	-0.43
311.8	-0.41
312.166	-0.4
312.533	-0.3
312.899	-0.31
313.265	-0.28
313.631	-0.23
313.997	-0.19
314.363	-0.22
314.729	-0.22
315.096	-0.18
315.461	-0.16
315.827	-0.15
316.193	-0.15
316.559	-0.17
316.925	-0.13
317.291	-0.16
317.656	-0.18
318.022	-0.12
318.388	-0.13
318.753	-0.16
319.119	-0.21
319.484	-0.31
319.85	-0.24
320.215	-0.24
320.581	-0.27
320.946	-0.28
321.311	-0.34
321.676	-0.4
322.042	-0.36
322.407	-0.38
322.772	-0.35
323.137	-0.3
323.502	-0.25
323.867	-0.26
324.232	-0.22
324.597	-0.29
324.962	-0.26
325.327	-0.25
325.691	-0.26
326.056	-0.22
326.421	-0.18
326.785	-0.14
327.15	-0.18
327.514	-0.23
327.879	-0.21
328.243	-0.23
328.608	-0.17
328.972	-0.16
329.337	-0.13
329.701	-0.07
330.065	-0.06
330.429	-0.02
330.794	0
331.158	-0.04
331.522	-0.04
331.886	-0.1
332.25	-0.22
332.614	-0.25
332.978	-0.25
333.342	-0.29
333.705	-0.32
334.069	-0.38
334.433	-0.35
334.797	-0.31
335.16	-0.37
335.524	-0.42
335.887	-0.43
336.251	-0.39
336.614	-0.31
336.978	-0.32
337.341	-0.27
337.705	-0.29
338.068	-0.33
338.431	-0.31
338.794	-0.31
339.158	-0.37
339.521	-0.4
339.884	-0.44
340.247	-0.44
340.61	-0.4
340.973	-0.39
341.336	-0.34
341.699	-0.28
342.062	-0.32
342.424	-0.32
342.787	-0.34
343.15	-0.34
343.512	-0.38
343.875	-0.39
344.238	-0.39
344.6	-0.31
344.963	-0.29
345.325	-0.38
345.688	-0.42
346.05	-0.4
346.412	-0.5
346.775	-0.43
347.137	-0.43
347.499	-0.46
347.861	-0.45
348.223	-0.4
348.585	-0.4
348.947	-0.32
349.309	-0.33
349.671	-0.4
350.033	-0.4
350.395	-0.43
350.757	-0.46
351.118	-0.43
351.48	-0.42
351.842	-0.36
352.203	-0.36
352.565	-0.31
352.927	-0.28
353.288	-0.25
353.65	-0.35
354.011	-0.37
354.372	-0.25
354.734	-0.22
355.095	-0.15
355.456	-0.15
355.817	-0.27
356.179	-0.31
356.54	-0.32
356.901	-0.37
357.262	-0.39
357.623	-0.45
357.984	-0.48
358.345	-0.46
358.705	-0.44
359.066	-0.43
359.427	-0.39
359.788	-0.37
360.148	-0.33
360.509	-0.39
360.87	-0.41
361.23	-0.41
361.591	-0.37
361.951	-0.37
362.312	-0.37
362.672	-0.36
363.032	-0.37
363.393	-0.41
363.753	-0.5
364.113	-0.61
364.473	-0.54
364.833	-0.44
365.193	-0.41
365.553	-0.36
365.913	-0.34
366.273	-0.35
366.633	-0.26
366.993	-0.28
367.353	-0.32
367.713	-0.35
368.072	-0.39
368.432	-0.47
368.792	-0.46
369.151	-0.59
369.511	-0.6
369.87	-0.55
370.23	-0.51
370.589	-0.61
370.949	-0.61
371.308	-0.61
371.667	-0.58
372.027	-0.56
372.386	-0.58
372.745	-0.59
373.104	-0.58
373.463	-0.6
373.822	-0.59
374.181	-0.57
374.54	-0.64
374.899	-0.68
375.258	-0.79
375.617	-0.85
375.975	-0.81
376.334	-0.78
376.693	-0.77
377.052	-0.76
377.41	-0.69
377.769	-0.66
378.127	-0.62
378.486	-0.61
378.844	-0.66
379.202	-0.69
379.561	-0.61
379.919	-0.66
380.277	-0.61
380.636	-0.58
380.994	-0.58
381.352	-0.63
381.71	-0.58
382.068	-0.5
382.426	-0.51
382.784	-0.48
383.142	-0.47
383.5	-0.48
383.857	-0.44
384.215	-0.33
384.573	-0.35
384.931	-0.46
385.288	-0.48
385.646	-0.52
386.003	-0.57
386.361	-0.53
386.718	-0.55
387.076	-0.5
387.433	-0.44
387.791	-0.41
388.148	-0.4
388.505	-0.47
388.862	-0.52
389.22	-0.5
389.577	-0.53
389.934	-0.53
390.291	-0.43
390.648	-0.42
391.005	-0.44
391.362	-0.47
391.718	-0.56
392.075	-0.58
392.432	-0.52
392.789	-0.56
393.145	-0.5
393.502	-0.43
393.859	-0.39
394.215	-0.29
394.572	-0.25
394.928	-0.2
395.285	-0.22
395.641	-0.21
395.997	-0.27
396.354	-0.22
396.71	-0.23
397.066	-0.22
397.422	-0.22
397.778	-0.11
398.134	-0.17
398.491	-0.17
398.846	-0.14
399.202	-0.16
399.558	-0.13
399.914	-0.15
400.27	-0.06
400.626	-0.02
400.981	-0.05
401.337	-0.06
401.693	0.07
402.048	0.08
402.404	0.13
402.759	0.2
403.115	0.09
403.47	0.2
403.826	0.27
404.181	0.33
404.536	0.24
404.892	0.32
405.247	0.28
405.602	0.31
405.957	0.3
406.312	0.41
406.667	0.37
407.022	0.44
407.377	0.49
407.732	0.51
408.087	0.52
408.442	0.47
408.796	0.5
409.151	0.46
409.506	0.5
409.86	0.54
410.215	0.65
410.57	0.62
410.924	0.61
411.279	0.57
411.633	0.57
411.987	0.68
412.342	0.62
412.696	0.63
413.05	0.67
413.404	0.78
413.758	0.97
414.113	0.99
414.467	0.96
414.821	1.03
415.175	1.01
415.529	1.06
415.882	1.07
416.236	1.12
416.59	1.15
416.944	1.13
417.298	1.34
417.651	1.25
418.005	1.29
418.358	1.32
418.712	1.33
419.065	1.29
419.419	1.33
419.772	1.29
420.126	1.42
420.479	1.54
420.832	1.52
421.185	1.43
421.539	1.4
421.892	1.36
422.245	1.42
422.598	1.37
422.951	1.47
423.304	1.6
423.657	1.69
424.01	1.75
424.363	1.81
424.715	1.83
425.068	1.78
425.421	1.83
425.773	1.96
426.126	1.88
426.479	2.02
426.831	2.1
427.184	2.19
427.536	2.33
427.889	2.37
428.241	2.43
428.593	2.53
428.945	2.48
429.298	2.41
429.65	2.57
430.002	2.76
430.354	2.93
430.706	3
431.058	2.99
431.41	2.94
431.762	2.88
432.114	2.98
432.466	2.97
432.817	2.98
433.169	3
433.521	3.09
433.872	3.19
434.224	3.12
434.576	3.09
434.927	3.06
435.279	3.06
435.63	3.01
435.981	2.99
436.333	2.92
436.684	2.92
437.035	2.81
437.387	2.81
437.738	2.83
438.089	2.79
438.44	2.67
438.791	2.59
439.142	2.51
439.493	2.49
439.844	2.44
440.195	2.42
440.545	2.42
440.896	2.29
441.247	2.25
441.598	2.21
441.948	2.21
442.299	2.17
442.649	2.17
443	2.21
443.35	2.19
443.701	2.2
444.051	2.19
444.401	2.22
444.752	2.13
445.102	2.14
445.452	2.11
445.802	2.07
446.152	2
446.502	2.08
446.852	2.07
447.202	2.04
447.552	2.11
447.902	2.05
448.252	2
448.602	3.08
448.952	3.16
449.301	3.24
449.651	3.29
450.001	3.34
450.35	3.46
450.7	3.45
451.049	3.37
451.399	3.31
451.748	3.35
452.097	3.28
452.447	3.38
452.796	3.52
453.145	3.61
453.494	3.72
453.843	3.71
454.193	3.78
454.542	3.96
454.891	4.01
455.239	3.98
455.588	4.16
455.937	4.38
456.286	4.5
456.635	4.74
456.984	4.85
457.332	3.81
457.681	3.73
458.03	3.76
458.378	3.86
458.727	3.94
459.075	3.88
459.423	4
459.772	4.16
460.12	4.26
460.468	4.32
460.817	4.61
461.165	4.67
461.513	4.66
461.861	4.71
462.209	4.74
462.557	4.9
462.905	5.06
463.253	5.13
463.601	5.17
463.949	5.11
464.297	5.08
464.644	4.96
464.992	4.81
465.34	4.82
465.687	4.86
466.035	4.71
466.383	4.77
466.73	4.84
467.078	4.8
467.425	4.71
467.772	4.7
468.12	4.65
468.467	4.58
468.814	4.52
469.161	4.45
469.508	4.29
469.856	4.22
470.203	4.21
470.55	4.12
470.897	3.99
471.243	3.92
471.59	3.76
471.937	3.65
472.284	3.69
472.631	3.74
472.977	3.82
473.324	3.77
473.671	3.8
474.017	3.75
474.364	3.67
474.71	3.66
475.057	3.58
475.403	3.37
475.749	3.29
476.096	3.32
476.442	3.36
476.788	3.32
477.134	3.3
477.48	3.32
477.826	3.39
478.172	3.45
478.518	3.44
478.864	3.42
479.21	3.41
479.556	3.54
479.902	3.53
480.248	3.5
480.593	3.6
480.939	3.68
481.285	3.76
481.63	3.79
481.976	4
482.321	4.02
482.667	4.05
483.012	4.15
483.357	4.34
483.703	4.56
484.048	4.88
484.393	5.06
484.738	5.33
485.084	5.46
485.429	5.72
485.774	6.03
486.119	6.31
486.464	6.57
486.808	6.84
487.153	7.17
487.498	7.48
487.843	7.88
488.188	8.25
488.532	8.71
488.877	9.3
489.222	9.81
489.566	10.33
489.911	10.91
490.255	11.39
490.6	11.93
490.944	12.72
491.288	13.33
491.633	13.99
491.977	14.61
492.321	15.23
492.665	15.9
493.009	16.6
493.353	17.2
493.697	17.92
494.041	18.61
494.385	19.28
494.729	19.99
495.073	20.74
495.417	21.49
495.76	22.27
496.104	23.19
496.448	24.02
496.791	24.83
497.135	25.6
497.479	26.3
497.822	27.06
498.165	27.8
498.509	28.61
498.852	29.6
499.196	30.53
499.539	31.19
499.882	32.08
500.225	32.83
500.568	33.53
500.911	34.25
501.254	34.89
501.597	35.74
501.94	36.46
502.283	37.26
502.626	38.05
502.969	38.82
503.312	39.48
503.654	40.26
503.997	40.99
504.34	41.59
504.682	42.21
505.025	42.8
505.367	43.48
505.71	44.14
506.052	44.91
506.395	45.52
506.737	46.21
507.079	46.78
507.421	47.21
507.764	47.65
508.106	48.22
508.448	48.65
508.79	49.12
509.132	49.68
509.474	50.26
509.816	50.72
510.158	50.98
510.499	51.28
510.841	51.62
511.183	51.9
511.525	52.26
511.866	52.64
512.208	52.87
512.549	53.13
512.891	53.71
513.232	54.11
513.574	54.44
513.915	54.78
514.256	55.1
514.598	55.46
514.939	55.87
515.28	56.23
515.621	56.51
515.962	56.89
516.303	57.25
516.644	57.63
516.985	57.86
517.326	58.27
517.667	58.51
518.008	58.71
518.349	58.94
518.69	59.39
519.03	59.73
519.371	59.95
519.712	60.31
520.052	60.57
520.393	60.87
520.733	61
521.074	61.2
521.414	61.34
521.754	61.34
522.095	61.48
522.435	61.81
522.775	62.12
523.115	62.18
523.455	62.18
523.795	62.3
524.135	62.36
524.475	62.38
524.815	62.55
525.155	62.77
525.495	62.93
525.835	63.02
526.175	63.25
526.514	63.43
526.854	63.58
527.194	63.65
527.533	63.8
527.873	63.91
528.212	63.95
528.552	64.02
528.891	64.09
529.23	64.22
529.57	64.46
529.909	64.49
530.248	64.73
530.587	64.9
530.927	64.86
531.266	64.99
531.605	65.09
531.944	65.15
532.283	65.15
532.621	65.21
532.96	65.41
533.299	65.53
533.638	65.48
533.977	65.49
534.315	65.54
534.654	65.5
534.992	65.49
535.331	65.6
535.67	65.52
536.008	65.52
536.346	65.71
536.685	65.62
537.023	65.69
537.361	65.81
537.7	65.97
538.038	66
538.376	66.03
538.714	66.18
539.052	66.3
539.39	66.15
539.728	66.18
540.066	66.19
540.404	66.26
540.741	66.22
541.079	66.32
541.417	66.38
541.755	66.3
542.092	66.34
542.43	66.49
542.767	66.45
543.105	66.7
543.442	66.7
543.78	66.77
544.117	66.91
544.454	66.95
544.792	66.87
545.129	67.12
545.466	67.04
545.803	67.04
546.14	66.95
546.477	66.84
546.814	66.68
547.151	66.55
547.488	66.5
547.825	66.72
548.162	66.74
548.499	66.7
548.835	66.8
549.172	67
549.509	67.07
549.845	67.16
550.182	67.23
550.518	67.26
550.855	67.22
551.191	67.34
551.528	67.11
551.864	67.01
552.2	67.04
552.537	67.05
552.873	67.16
553.209	67.19
553.545	67.18
553.881	67.25
554.217	67.1
554.553	67.28
554.889	67.42
555.225	67.77
555.561	67.98
555.896	67.94
556.232	67.93
556.568	67.88
556.903	68.06
557.239	67.92
557.575	67.7
557.91	67.66
558.245	67.59
558.581	67.56
558.916	67.76
559.252	67.85
559.587	67.75
559.922	67.91
560.257	68.24
560.592	68.22
560.928	68.28
561.263	68.49
561.598	68.35
561.933	68.17
562.267	68.29
562.602	68.59
562.937	68.56
563.272	68.51
563.607	68.45
563.941	68.35
564.276	68.48
564.611	68.59
564.945	68.57
565.28	68.51
565.614	68.63
565.949	68.97
566.283	69.1
566.617	69.15
566.951	69.16
567.286	69.07
567.62	69.04
567.954	69.27
568.288	69.34
568.622	69.28
568.956	69.27
569.29	69.23
569.624	69.01
569.958	69.04
570.292	69.2
570.626	69.23
570.959	69.09
571.293	69.09
571.627	69.1
571.96	69.13
572.294	69.17
572.627	69.21
572.961	69.08
573.294	69.11
573.627	69.2
573.961	69.25
574.294	69.19
574.627	69.24
574.961	69.17
575.294	69.16
575.627	69.04
575.96	68.89
576.293	68.7
576.626	68.65
576.959	68.68
577.292	68.7
577.624	68.79
577.957	68.85
578.29	68.94
578.623	68.98
578.955	68.88
579.288	68.9
579.62	69.01
579.953	69.05
580.285	69.1
580.618	69.15
580.95	69.14
581.282	69.2
581.615	69.25
581.947	69.12
582.279	69.12
582.611	69.1
582.943	69.08
583.275	69.16
583.607	69.17
583.939	69.4
584.271	69.56
584.603	69.69
584.935	69.66
585.267	69.58
585.598	69.74
585.93	69.67
586.262	69.58
586.593	69.66
586.925	69.65
587.256	69.73
587.588	69.65
587.919	69.6
588.25	69.59
588.582	69.53
588.913	69.45
589.244	69.29
589.575	69.38
589.907	69.45
590.238	69.6
590.569	69.57
590.9	69.64
591.231	69.67
591.562	69.77
591.892	69.91
592.223	69.87
592.554	69.97
592.885	70.14
593.215	70.08
593.546	69.95
593.877	69.79
594.207	69.85
594.538	69.98
594.868	69.98
595.198	69.94
595.529	69.97
595.859	70.3
596.189	70.2
596.52	70.27
596.85	70.19
597.18	70.34
597.51	70.4
597.84	70.26
598.17	70.06
598.5	69.93
598.83	69.96
599.16	69.96
599.489	69.92
599.819	69.68
600.149	69.56
600.479	69.39
600.808	69.31
601.138	69.1
601.467	69.15
601.797	69.15
602.126	69.16
602.456	69.09
602.785	69.16
603.114	69.19
603.443	69.21
603.773	69.26
604.102	69.09
604.431	69.2
604.76	69.13
605.089	69.23
605.418	69.01
605.747	69.13
606.076	69.11
606.405	69.18
606.733	69.12
607.062	69.08
607.391	68.93
607.72	68.94
608.048	68.96
608.377	68.95
608.705	68.88
609.034	68.89
609.362	69.05
609.69	68.97
610.019	69.07
610.347	69.08
610.675	69.02
611.004	68.86
611.332	68.72
611.66	68.85
611.988	68.56
612.316	68.53
612.644	68.44
612.972	68.34
613.3	68.34
613.627	68.54
613.955	68.51
614.283	68.82
614.611	68.87
614.938	68.94
615.266	68.91
615.593	69.04
615.921	68.86
616.248	68.81
616.576	68.77
616.903	69.3
617.23	69.39
617.558	69.48
617.885	69.42
618.212	69.36
618.539	69.05
618.866	68.8
619.193	68.86
619.52	68.75
619.847	68.58
620.174	68.93
620.501	69.07
620.828	69.02
621.155	69.24
621.481	69.19
621.808	68.97
622.135	68.87
622.461	68.46
622.788	68.46
623.114	68.62
623.441	68.81
623.767	68.73
624.093	68.86
624.42	69.18
624.746	69.4
625.072	68.92
625.398	68.98
625.725	68.83
626.051	68.98
626.377	69.25
626.703	69.94
627.029	70.38
627.354	70.62
627.68	70.97
628.006	71.07
628.332	70.79
628.658	70.47
628.983	70.55
629.309	70.56
629.634	70.67
629.96	70.72
630.285	71.18
630.611	71.31
630.936	71.37
631.262	71.07
631.587	70.8
631.912	70.86
632.237	71.29
632.562	71.54
632.887	71.76
633.213	71.37
633.538	71.44
633.863	70.99
634.187	71.01
634.512	71.29
634.837	70.69
635.162	70.45
635.487	69.69
635.811	69.56
636.136	70.07
636.461	70.1
636.785	70.23
637.11	70.21
637.434	70.46
637.758	70.31
638.083	70.23
638.407	69.47
638.731	69.86
639.056	69.86
639.38	70.6
639.704	70.48
640.028	70.36
640.352	69.82
640.676	69.29
641	68.44
641.324	69.08
641.648	68.94
641.972	69.24
642.295	69.3
642.619	69.41
642.943	69.56
643.266	69.7
643.59	70.49
643.913	70.36
644.237	69.63
644.56	69.52
644.884	69.49
645.207	69.84
645.53	69.48
645.854	69.51
646.177	69.1
646.5	69.76
646.823	69.9
647.146	69.72
647.469	69.76
647.792	69.62
648.115	70.22
648.438	70.17
648.761	70.8
649.084	71.02
649.406	70.9
649.729	69.84
650.052	69.35
650.374	69.22
650.697	68.94
651.019	68.95
651.342	68.93
651.664	68.84
651.987	68.9
652.309	68.96
652.631	69.2
652.953	69.24
653.276	69.13
653.598	69.19
653.92	69.09
654.242	69.36
654.564	69.26
654.886	69.06
655.208	69.17
655.53	68.97
655.851	69.09
656.173	68.83
656.495	68.92
