Data from T1_Reflection__98__23-37-31-119.txt Node

Date: Wed Jun 02 23:37:31 CEST 2021
User: mabdelazizm
Spectrometer: FLMS18565
Trigger mode: 0
Integration Time (sec): 2.000000E0
Scans to average: 1
Electric dark correction enabled: true
Nonlinearity correction enabled: false
Boxcar width: 12
XAxis mode: Wavelengths
Number of Pixels in Spectrum: 2048
>>>>>Begin Spectral Data<<<<<
179.071	-116.81
179.452	-151.78
179.833	-136.88
180.214	-161.82
180.595	-2220.56
180.977	-813.01
181.358	-508.39
181.739	-1003.92
182.12	-376.94
182.501	-395.33
182.882	-153.63
183.262	-230.48
183.643	-79.61
184.024	-15.32
184.405	-1.24
184.786	14.51
185.166	18.91
185.547	18.6
185.927	13.9
186.308	20.32
186.689	22.16
187.069	17.28
187.449	9.79
187.83	7.09
188.21	6.61
188.59	4.84
188.971	5.14
189.351	7.68
189.731	11.37
190.111	13.86
190.491	14.11
190.871	14.62
191.251	14.03
191.631	12.93
192.011	13.06
192.391	13.03
192.771	15.75
193.151	14.6
193.531	13.84
193.91	14
194.29	12.79
194.67	10.95
195.049	10.4
195.429	12.44
195.808	11.56
196.188	10.43
196.567	11.27
196.946	13.25
197.326	13.11
197.705	12.71
198.084	12.12
198.464	12.82
198.843	12.05
199.222	10.7
199.601	11.42
199.98	10.59
200.359	9.43
200.738	10.8
201.117	10.95
201.496	10.83
201.875	8.94
202.254	7.28
202.632	6.11
203.011	5.9
203.39	5.92
203.768	6.9
204.147	8.09
204.525	7.81
204.904	6.65
205.282	6.48
205.661	5.94
206.039	6.65
206.418	6.52
206.796	6.69
207.174	6.29
207.552	6.86
207.931	5.8
208.309	6.26
208.687	6.26
209.065	6.08
209.443	5.81
209.821	6.36
210.199	5.9
210.577	4.67
210.954	4.6
211.332	5.96
211.71	6.39
212.088	7.08
212.465	7.08
212.843	6.64
213.221	6.6
213.598	6.95
213.976	6.66
214.353	6.7
214.731	6.22
215.108	6.79
215.485	5.15
215.863	4.43
216.24	4.66
216.617	5.52
216.994	5.42
217.371	5.41
217.749	5.21
218.126	5.39
218.503	5.17
218.88	5.16
219.256	5.14
219.633	5
220.01	6.28
220.387	6.75
220.764	6.37
221.14	6.12
221.517	6.21
221.894	6.26
222.27	7.11
222.647	6.73
223.023	5.85
223.4	6.06
223.776	6.34
224.153	5.94
224.529	5.75
224.905	6.22
225.282	6.3
225.658	5.81
226.034	5.33
226.41	5.24
226.786	5.31
227.162	5.07
227.538	5.03
227.914	4.98
228.29	4.75
228.666	4.42
229.042	4.29
229.418	4.12
229.793	3.86
230.169	3.98
230.545	3.83
230.92	3.87
231.296	3.83
231.672	3.73
232.047	3.67
232.422	3.71
232.798	3.44
233.173	3.33
233.549	3.48
233.924	3.33
234.299	3.06
234.674	3.09
235.05	3.06
235.425	3.2
235.8	3.13
236.175	3.04
236.55	3.08
236.925	3.04
237.3	3.02
237.675	3
238.049	3.08
238.424	3.08
238.799	3.07
239.174	3.09
239.548	2.89
239.923	2.96
240.297	2.89
240.672	2.86
241.046	2.77
241.421	2.77
241.795	2.74
242.17	2.84
242.544	2.81
242.918	2.82
243.293	2.88
243.667	2.98
244.041	2.95
244.415	2.95
244.789	2.9
245.163	2.9
245.537	2.98
245.911	2.97
246.285	3
246.659	3.04
247.033	3.18
247.406	3.22
247.78	3.16
248.154	3.13
248.528	3.07
248.901	3.07
249.275	3.03
249.648	3.05
250.022	3.06
250.395	3.06
250.769	3
251.142	3.06
251.515	3.05
251.888	3.02
252.262	2.97
252.635	2.92
253.008	2.92
253.381	2.82
253.754	2.82
254.127	2.82
254.5	2.79
254.873	2.68
255.246	2.71
255.619	2.68
255.992	2.61
256.364	2.56
256.737	2.53
257.11	2.6
257.483	2.55
257.855	2.52
258.228	2.55
258.6	2.55
258.973	2.52
259.345	2.53
259.718	2.49
260.09	2.54
260.462	2.45
260.834	2.41
261.207	2.43
261.579	2.47
261.951	2.46
262.323	2.4
262.695	2.39
263.067	2.41
263.439	2.38
263.811	2.46
264.183	2.44
264.555	2.35
264.927	2.32
265.298	2.31
265.67	2.28
266.042	2.24
266.413	2.2
266.785	2.21
267.156	2.19
267.528	2.15
267.899	2.15
268.271	2.12
268.642	2.04
269.013	2.04
269.385	2.07
269.756	2.13
270.127	2.12
270.498	2.06
270.87	1.98
271.241	1.98
271.612	2
271.983	2.05
272.354	2.02
272.724	2.02
273.095	1.97
273.466	1.97
273.837	2.03
274.208	2.02
274.578	2.03
274.949	2.05
275.32	2.05
275.69	2.01
276.061	1.99
276.431	2.04
276.802	2.02
277.172	2.02
277.542	2.06
277.913	2.11
278.283	2.11
278.653	2.04
279.023	2.03
279.394	2.04
279.764	2.08
280.134	2.08
280.504	2.08
280.874	2.09
281.244	2.01
281.614	1.96
281.983	1.98
282.353	1.97
282.723	2.02
283.093	2
283.462	1.99
283.832	1.93
284.202	1.87
284.571	1.88
284.941	1.89
285.31	1.88
285.68	1.83
286.049	1.77
286.418	1.73
286.788	1.77
287.157	1.68
287.526	1.66
287.895	1.67
288.264	1.73
288.633	1.72
289.002	1.74
289.371	1.8
289.74	1.82
290.109	1.8
290.478	1.89
290.847	1.91
291.216	1.9
291.585	1.84
291.953	1.79
292.322	1.8
292.691	1.79
293.059	1.8
293.428	1.78
293.796	1.79
294.165	1.75
294.533	1.73
294.901	1.74
295.27	1.85
295.638	1.79
296.006	1.71
296.374	1.77
296.743	1.73
297.111	1.68
297.479	1.6
297.847	1.58
298.215	1.46
298.583	1.4
298.95	1.34
299.318	1.34
299.686	1.27
300.054	1.3
300.422	1.27
300.789	1.28
301.157	1.29
301.525	1.24
301.892	1.27
302.26	1.34
302.627	1.38
302.994	1.33
303.362	1.3
303.729	1.33
304.097	1.32
304.464	1.3
304.831	1.33
305.198	1.29
305.565	1.3
305.932	1.28
306.299	1.34
306.666	1.3
307.033	1.29
307.4	1.31
307.767	1.25
308.134	1.28
308.501	1.24
308.867	1.22
309.234	1.24
309.601	1.25
309.967	1.31
310.334	1.3
310.701	1.25
311.067	1.19
311.433	1.13
311.8	1.16
312.166	1.21
312.533	1.31
312.899	1.32
313.265	1.34
313.631	1.3
313.997	1.34
314.363	1.33
314.729	1.32
315.096	1.31
315.461	1.31
315.827	1.32
316.193	1.36
316.559	1.4
316.925	1.5
317.291	1.42
317.656	1.47
318.022	1.5
318.388	1.48
318.753	1.45
319.119	1.41
319.484	1.41
319.85	1.49
320.215	1.48
320.581	1.49
320.946	1.43
321.311	1.4
321.676	1.3
322.042	1.29
322.407	1.35
322.772	1.38
323.137	1.38
323.502	1.41
323.867	1.42
324.232	1.47
324.597	1.46
324.962	1.54
325.327	1.55
325.691	1.56
326.056	1.57
326.421	1.62
326.785	1.62
327.15	1.62
327.514	1.6
327.879	1.64
328.243	1.6
328.608	1.61
328.972	1.62
329.337	1.71
329.701	1.72
330.065	1.8
330.429	1.79
330.794	1.81
331.158	1.84
331.522	1.8
331.886	1.79
332.25	1.71
332.614	1.68
332.978	1.65
333.342	1.69
333.705	1.71
334.069	1.65
334.433	1.64
334.797	1.62
335.16	1.6
335.524	1.59
335.887	1.58
336.251	1.61
336.614	1.62
336.978	1.6
337.341	1.66
337.705	1.71
338.068	1.79
338.431	1.74
338.794	1.71
339.158	1.63
339.521	1.64
339.884	1.61
340.247	1.57
340.61	1.51
340.973	1.56
341.336	1.65
341.699	1.68
342.062	1.66
342.424	1.6
342.787	1.55
343.15	1.55
343.512	1.47
343.875	1.45
344.238	1.43
344.6	1.49
344.963	1.48
345.325	1.45
345.688	1.38
346.05	1.39
346.412	1.32
346.775	1.29
347.137	1.15
347.499	1.18
347.861	1.23
348.223	1.23
348.585	1.22
348.947	1.28
349.309	1.25
349.671	1.26
350.033	1.18
350.395	1.16
350.757	1.13
351.118	1.18
351.48	1.18
351.842	1.27
352.203	1.25
352.565	1.27
352.927	1.36
353.288	1.42
353.65	1.33
354.011	1.34
354.372	1.37
354.734	1.41
355.095	1.41
355.456	1.42
355.817	1.4
356.179	1.4
356.54	1.39
356.901	1.35
357.262	1.36
357.623	1.32
357.984	1.33
358.345	1.37
358.705	1.4
359.066	1.4
359.427	1.41
359.788	1.43
360.148	1.42
360.509	1.42
360.87	1.37
361.23	1.38
361.591	1.47
361.951	1.43
362.312	1.47
362.672	1.5
363.032	1.55
363.393	1.57
363.753	1.56
364.113	1.57
364.473	1.59
364.833	1.62
365.193	1.67
365.553	1.7
365.913	1.72
366.273	1.78
366.633	1.86
366.993	1.73
367.353	1.72
367.713	1.77
368.072	1.74
368.432	1.7
368.792	1.74
369.151	1.74
369.511	1.78
369.87	1.77
370.23	1.83
370.589	1.81
370.949	1.78
371.308	1.69
371.667	1.72
372.027	1.72
372.386	1.68
372.745	1.63
373.104	1.57
373.463	1.61
373.822	1.59
374.181	1.63
374.54	1.56
374.899	1.56
375.258	1.52
375.617	1.49
375.975	1.67
376.334	1.69
376.693	1.61
377.052	1.65
377.41	1.68
377.769	1.68
378.127	1.67
378.486	1.61
378.844	1.62
379.202	1.54
379.561	1.54
379.919	1.51
380.277	1.49
380.636	1.52
380.994	1.48
381.352	1.46
381.71	1.56
382.068	1.67
382.426	1.67
382.784	1.72
383.142	1.71
383.5	1.69
383.857	1.78
384.215	1.82
384.573	1.72
384.931	1.62
385.288	1.68
385.646	1.63
386.003	1.61
386.361	1.66
386.718	1.68
387.076	1.75
387.433	1.84
387.791	1.91
388.148	1.98
388.505	2.02
388.862	2.04
389.22	2.12
389.577	2.17
389.934	2.23
390.291	2.31
390.648	2.29
391.005	2.31
391.362	2.33
391.718	2.31
392.075	2.29
392.432	2.37
392.789	2.24
393.145	2.32
393.502	2.37
393.859	2.52
394.215	2.6
394.572	2.74
394.928	2.83
395.285	2.88
395.641	2.9
395.997	2.97
396.354	3.11
396.71	3.15
397.066	3.26
397.422	3.34
397.778	3.47
398.134	3.54
398.491	3.59
398.846	3.66
399.202	3.76
399.558	3.92
399.914	3.96
400.27	4.03
400.626	4.16
400.981	4.27
401.337	4.39
401.693	4.65
402.048	4.78
402.404	5.04
402.759	5.22
403.115	5.36
403.47	5.62
403.826	5.88
404.181	6.06
404.536	6.21
404.892	6.37
405.247	6.51
405.602	6.73
405.957	6.88
406.312	7.12
406.667	7.36
407.022	7.7
407.377	8
407.732	8.31
408.087	8.59
408.442	8.84
408.796	9.13
409.151	9.48
409.506	9.92
409.86	10.29
410.215	10.71
410.57	11.04
410.924	11.37
411.279	11.67
411.633	11.98
411.987	12.36
412.342	12.65
412.696	13
413.05	13.52
413.404	13.97
413.758	14.58
414.113	15.05
414.467	15.49
414.821	15.97
415.175	16.44
415.529	16.92
415.882	17.23
416.236	17.73
416.59	18.21
416.944	18.68
417.298	19.27
417.651	19.81
418.005	20.25
418.358	20.74
418.712	21.24
419.065	21.76
419.419	22.25
419.772	22.79
420.126	23.44
420.479	24.04
420.832	24.52
421.185	24.99
421.539	25.4
421.892	25.86
422.245	26.38
422.598	26.78
422.951	27.32
423.304	27.74
423.657	28.19
424.01	28.71
424.363	29.2
424.715	29.79
425.068	30.16
425.421	30.59
425.773	31.13
426.126	31.75
426.479	32.18
426.831	32.73
427.184	33.1
427.536	33.51
427.889	33.83
428.241	34.3
428.593	34.67
428.945	35.09
429.298	35.39
429.65	35.76
430.002	36.28
430.354	36.85
430.706	37.14
431.058	37.53
431.41	37.91
431.762	38.17
432.114	38.65
432.466	39.1
432.817	39.42
433.169	39.84
433.521	40.35
433.872	40.84
434.224	41.2
434.576	41.43
434.927	41.5
435.279	41.82
435.63	42.09
435.981	42.38
436.333	42.81
436.684	43.21
437.035	43.37
437.387	43.66
437.738	43.74
438.089	43.92
438.44	44.23
438.791	44.46
439.142	44.6
439.493	44.77
439.844	44.94
440.195	45.13
440.545	45.38
440.896	45.52
441.247	45.81
441.598	46.03
441.948	46.16
442.299	46.27
442.649	46.4
443	46.58
443.35	46.76
443.701	46.98
444.051	47.27
444.401	47.37
444.752	47.45
445.102	47.51
445.452	47.49
445.802	47.66
446.152	47.69
446.502	47.94
446.852	48.29
447.202	48.2
447.552	48.26
447.902	48.26
448.252	48.37
448.602	49.86
448.952	49.95
449.301	49.99
449.651	49.99
450.001	49.91
450.35	50.02
450.7	50.16
451.049	50.16
451.399	50.24
451.748	50.23
452.097	50.14
452.447	50.23
452.796	50
453.145	50.17
453.494	50.24
453.843	50.14
454.193	50.22
454.542	50.21
454.891	50.38
455.239	50.23
455.588	50.09
455.937	50.37
456.286	50.34
456.635	50.63
456.984	50.79
457.332	49.14
457.681	49.07
458.03	48.95
458.378	48.92
458.727	48.96
459.075	48.9
459.423	48.91
459.772	48.93
460.12	48.86
460.468	48.95
460.817	49.07
461.165	48.93
461.513	48.99
461.861	48.95
462.209	48.82
462.557	48.78
462.905	48.82
463.253	48.84
463.601	48.64
463.949	48.53
464.297	48.54
464.644	48.19
464.992	48.2
465.34	48.03
465.687	48.06
466.035	48.06
466.383	48.01
466.73	48.03
467.078	48.1
467.425	48.01
467.772	47.94
468.12	47.69
468.467	47.66
468.814	47.73
469.161	47.67
469.508	47.58
469.856	47.59
470.203	47.51
470.55	47.25
470.897	47.38
471.243	47.3
471.59	47.14
471.937	47
472.284	46.94
472.631	46.91
472.977	46.91
473.324	46.95
473.671	46.88
474.017	46.83
474.364	46.61
474.71	46.68
475.057	46.56
475.403	46.49
475.749	46.47
476.096	46.31
476.442	46.18
476.788	46.28
477.134	46.23
477.48	46.05
477.826	46.01
478.172	45.88
478.518	45.66
478.864	45.55
479.21	45.57
479.556	45.45
479.902	45.34
480.248	45.08
480.593	45.06
480.939	44.99
481.285	44.9
481.63	44.77
481.976	44.68
482.321	44.49
482.667	44.32
483.012	44.16
483.357	43.94
483.703	43.8
484.048	43.78
484.393	43.55
484.738	43.6
485.084	43.54
485.429	43.43
485.774	43.32
486.119	43.22
486.464	43.13
486.808	43.13
487.153	43.09
487.498	42.93
487.843	42.75
488.188	42.54
488.532	42.41
488.877	42.48
489.222	42.31
489.566	42.17
489.911	42.11
490.255	41.93
490.6	41.8
490.944	41.75
491.288	41.7
491.633	41.61
491.977	41.54
492.321	41.59
492.665	41.46
493.009	41.44
493.353	41.26
493.697	41.08
494.041	40.95
494.385	40.84
494.729	40.73
495.073	40.57
495.417	40.41
495.76	40.33
496.104	40.32
496.448	40.18
496.791	40.07
497.135	39.96
497.479	39.71
497.822	39.65
498.165	39.58
498.509	39.5
498.852	39.33
499.196	39.23
499.539	39.05
499.882	38.89
500.225	38.75
500.568	38.62
500.911	38.4
501.254	38.23
501.597	38.04
501.94	37.97
502.283	37.87
502.626	37.75
502.969	37.69
503.312	37.54
503.654	37.44
503.997	37.34
504.34	37.18
504.682	37.02
505.025	36.93
505.367	36.79
505.71	36.71
506.052	36.76
506.395	36.63
506.737	36.53
507.079	36.31
507.421	36.26
507.764	36.23
508.106	36.05
508.448	35.93
508.79	35.87
509.132	35.82
509.474	35.79
509.816	35.66
510.158	35.53
510.499	35.34
510.841	35.3
511.183	35.19
511.525	35.03
511.866	34.86
512.208	34.77
512.549	34.56
512.891	34.51
513.232	34.46
513.574	34.43
513.915	34.39
514.256	34.36
514.598	34.21
514.939	34.2
515.28	34.09
515.621	34.03
515.962	33.88
516.303	33.81
516.644	33.78
516.985	33.68
517.326	33.59
517.667	33.49
518.008	33.42
518.349	33.35
518.69	33.36
519.03	33.31
519.371	33.24
519.712	33.06
520.052	32.9
520.393	32.93
520.733	32.79
521.074	32.71
521.414	32.63
521.754	32.52
522.095	32.41
522.435	32.46
522.775	32.35
523.115	32.23
523.455	31.96
523.795	31.78
524.135	31.68
524.475	31.68
524.815	31.49
525.155	31.55
525.495	31.52
525.835	31.5
526.175	31.4
526.514	31.27
526.854	31.26
527.194	31.15
527.533	31.02
527.873	30.85
528.212	30.78
528.552	30.73
528.891	30.69
529.23	30.69
529.57	30.75
529.909	30.73
530.248	30.63
530.587	30.46
530.927	30.19
531.266	30.05
531.605	29.96
531.944	29.96
532.283	29.94
532.621	29.96
532.96	29.9
533.299	29.86
533.638	29.75
533.977	29.65
534.315	29.52
534.654	29.46
534.992	29.34
535.331	29.17
535.67	29.06
536.008	28.97
536.346	28.84
536.685	28.83
537.023	28.77
537.361	28.58
537.7	28.33
538.038	28.13
538.376	27.84
538.714	27.97
539.052	28.11
539.39	28.09
539.728	28.11
540.066	28.05
540.404	27.98
540.741	27.9
541.079	27.72
541.417	27.57
541.755	27.42
542.092	27.33
542.43	27.21
542.767	27.07
543.105	26.92
543.442	27.01
543.78	27.09
544.117	27.14
544.454	27.24
544.792	27.14
545.129	27.12
545.466	27
545.803	26.97
546.14	26.92
546.477	26.93
546.814	27.01
547.151	26.76
547.488	26.67
547.825	26.71
548.162	26.61
548.499	26.5
548.835	26.5
549.172	26.56
549.509	26.59
549.845	26.71
550.182	26.74
550.518	26.78
550.855	26.87
551.191	26.85
551.528	26.95
551.864	26.75
552.2	26.73
552.537	26.64
552.873	26.63
553.209	26.69
553.545	26.67
553.881	26.81
554.217	26.8
554.553	26.92
554.889	26.9
555.225	26.94
555.561	26.98
555.896	27
556.232	27.01
556.568	26.99
556.903	27.21
557.239	27.22
557.575	27.16
557.91	27.2
558.245	27.26
558.581	27.4
558.916	27.41
559.252	27.4
559.587	27.46
559.922	27.35
560.257	27.37
560.592	27.31
560.928	27.47
561.263	27.6
561.598	27.71
561.933	27.71
562.267	27.83
562.602	27.91
562.937	28
563.272	28.11
563.607	28.27
563.941	28.34
564.276	28.33
564.611	28.23
564.945	28.3
565.28	28.15
565.614	28.1
565.949	28.25
566.283	28.29
566.617	28.38
566.951	28.33
567.286	28.37
567.62	28.43
567.954	28.56
568.288	28.7
568.622	28.75
568.956	28.75
569.29	28.71
569.624	28.62
569.958	28.67
570.292	28.71
570.626	28.75
570.959	28.81
571.293	28.77
571.627	28.86
571.96	28.79
572.294	28.81
572.627	28.81
572.961	28.91
573.294	28.97
573.627	29.08
573.961	29.15
574.294	29.19
574.627	29.23
574.961	29.23
575.294	29.25
575.627	29.24
575.96	29.32
576.293	29.29
576.626	29.3
576.959	29.33
577.292	29.39
577.624	29.49
577.957	29.67
578.29	29.75
578.623	29.84
578.955	29.77
579.288	29.84
579.62	29.92
579.953	29.94
580.285	30.01
580.618	30.14
580.95	30.26
581.282	30.33
581.615	30.46
581.947	30.54
582.279	30.66
582.611	30.67
582.943	30.79
583.275	30.82
583.607	31.01
583.939	31.14
584.271	31.11
584.603	31.27
584.935	31.33
585.267	31.41
585.598	31.63
585.93	31.73
586.262	31.65
586.593	31.7
586.925	31.64
587.256	31.8
587.588	31.87
587.919	32.02
588.25	31.99
588.582	32.06
588.913	32.07
589.244	32.08
589.575	32.28
589.907	32.29
590.238	32.38
590.569	32.53
590.9	32.73
591.231	32.83
591.562	32.7
591.892	32.77
592.223	32.95
592.554	33.23
592.885	33.27
593.215	33.34
593.546	33.42
593.877	33.33
594.207	33.28
594.538	33.35
594.868	33.52
595.198	33.68
595.529	33.71
595.859	33.92
596.189	34
596.52	34.26
596.85	34.34
597.18	34.49
597.51	34.57
597.84	34.51
598.17	34.6
598.5	34.73
598.83	34.9
599.16	35.05
599.489	35.19
599.819	35.39
600.149	35.54
600.479	35.59
600.808	35.58
601.138	35.77
601.467	35.96
601.797	36.21
602.126	36.42
602.456	36.58
602.785	36.71
603.114	36.75
603.443	37.04
603.773	37.33
604.102	37.49
604.431	37.68
604.76	37.76
605.089	38.02
605.418	38.08
605.747	38.4
606.076	38.55
606.405	38.65
606.733	38.8
607.062	38.76
607.391	38.76
607.72	38.88
608.048	39.19
608.377	39.36
608.705	39.56
609.034	39.9
609.362	40.26
609.69	40.56
610.019	40.76
610.347	40.96
610.675	41.2
611.004	41.49
611.332	41.83
611.66	42.05
611.988	42.13
612.316	42.19
612.644	42.41
612.972	42.73
613.3	42.88
613.627	43.2
613.955	43.25
614.283	43.62
614.611	43.84
614.938	44.08
615.266	44.46
615.593	44.83
615.921	45.1
616.248	45.09
616.576	45.43
616.903	45.82
617.23	46.19
617.558	46.48
617.885	46.61
618.212	46.87
618.539	47.26
618.866	47.39
619.193	47.63
619.52	47.69
619.847	47.78
620.174	48.16
620.501	48.43
620.828	48.46
621.155	48.41
621.481	48.55
621.808	48.82
622.135	48.97
622.461	49.08
622.788	49.3
623.114	49.37
623.441	49.33
623.767	49.53
624.093	49.72
624.42	50.36
624.746	50.57
625.072	50.86
625.398	51.01
625.725	51.2
626.051	51.39
626.377	51.7
626.703	51.7
627.029	52.02
627.354	52.37
627.68	52.6
628.006	52.95
628.332	52.96
628.658	53.09
628.983	53.29
629.309	53.44
629.634	54.06
629.96	53.91
630.285	54.41
630.611	54.81
630.936	54.89
631.262	55.06
631.587	55.5
631.912	55.81
632.237	56.32
632.562	56.72
632.887	57.22
633.213	57.09
633.538	57.36
633.863	57.01
634.187	57
634.512	57.11
634.837	57.2
635.162	57.34
635.487	57.01
635.811	57.34
636.136	57.72
636.461	57.83
636.785	57.88
637.11	57.89
637.434	58.26
637.758	57.8
638.083	58.09
638.407	58.29
638.731	58.53
639.056	59.23
639.38	59.3
639.704	58.99
640.028	59.23
640.352	58.88
640.676	58.93
641	58.65
641.324	58.95
641.648	58.51
641.972	58.55
642.295	59.09
642.619	59.14
642.943	59.07
643.266	59.31
643.59	59.72
643.913	59.69
644.237	59.48
644.56	59.38
644.884	59.27
645.207	59.41
645.53	59.51
645.854	59.72
646.177	59.53
646.5	59.64
646.823	59.09
647.146	59.1
647.469	58.91
647.792	59.01
648.115	58.94
648.438	59.12
648.761	60.31
649.084	60.66
649.406	60.5
649.729	59.78
650.052	59.49
650.374	59.23
650.697	58.96
651.019	59.03
651.342	59.01
651.664	59.08
651.987	58.97
652.309	59.06
652.631	59.34
652.953	59.44
653.276	59.53
653.598	59.54
653.92	59.49
654.242	59.73
654.564	59.76
654.886	59.77
655.208	59.77
655.53	60.05
655.851	60.14
656.173	60.09
656.495	60.19
656.816	59.61
657.138	59.44
657.46	59.65
657.781	61.02
658.103	62.87
658.424	64.38
658.746	65.41
659.067	66.38
