Data from T1_Reflection__12__22-01-25-302.txt Node

Date: Wed Jun 02 22:01:25 CEST 2021
User: mabdelazizm
Spectrometer: FLMS18565
Trigger mode: 0
Integration Time (sec): 2.000000E0
Scans to average: 1
Electric dark correction enabled: true
Nonlinearity correction enabled: false
Boxcar width: 12
XAxis mode: Wavelengths
Number of Pixels in Spectrum: 2048
>>>>>Begin Spectral Data<<<<<
179.071	87.61
179.452	46.64
179.833	50.44
180.214	-9.09
180.595	-132.71
180.977	79.67
181.358	-109.83
181.739	-278.43
182.12	-39.36
182.501	-3.89
182.882	92.14
183.262	118.1
183.643	47.44
184.024	46.72
184.405	37.39
184.786	33.74
185.166	17.43
185.547	25.13
185.927	13.82
186.308	17.82
186.689	15.51
187.069	17.49
187.449	16.6
187.83	16.21
188.21	15.92
188.59	13.82
188.971	13.81
189.351	12.48
189.731	16.1
190.111	15.05
190.491	14.62
190.871	16.68
191.251	17.51
191.631	17.64
192.011	16.24
192.391	15.45
192.771	15.18
193.151	16.53
193.531	15.05
193.91	14.27
194.29	14.01
194.67	13.7
195.049	11.81
195.429	12.69
195.808	12.82
196.188	12.17
196.567	10.48
196.946	10.06
197.326	9.88
197.705	9.68
198.084	8.77
198.464	10.18
198.843	10.21
199.222	8.41
199.601	8.08
199.98	6.94
200.359	7.1
200.738	7.33
201.117	6.2
201.496	5.77
201.875	3.81
202.254	3.38
202.632	2.44
203.011	3.11
203.39	3.46
203.768	4.52
204.147	7.08
204.525	7.41
204.904	8.08
205.282	6.84
205.661	6.53
206.039	8.22
206.418	8.73
206.796	8.92
207.174	7.96
207.552	9.19
207.931	9.38
208.309	9.51
208.687	9.84
209.065	10.48
209.443	11.22
209.821	11.18
210.199	11.02
210.577	10.85
210.954	11.42
211.332	11.62
211.71	11.43
212.088	11.52
212.465	11.93
212.843	11.92
213.221	10.98
213.598	9.68
213.976	9.64
214.353	9.53
214.731	9.81
215.108	9.95
215.485	9.11
215.863	9.14
216.24	9.13
216.617	9.67
216.994	9.06
217.371	8.51
217.749	8.38
218.126	8.92
218.503	8.71
218.88	7.6
219.256	7.46
219.633	6.02
220.01	6.93
220.387	7.05
220.764	6.92
221.14	7.03
221.517	7.1
221.894	6.07
222.27	6.73
222.647	6.83
223.023	6.46
223.4	6.45
223.776	6.57
224.153	6.38
224.529	6.06
224.905	6.53
225.282	6.61
225.658	6.12
226.034	6.01
226.41	6.04
226.786	5.94
227.162	5.85
227.538	5.61
227.914	5.34
228.29	5.33
228.666	5.08
229.042	5.25
229.418	4.8
229.793	4.57
230.169	4.57
230.545	4.47
230.92	4.4
231.296	4.43
231.672	4.04
232.047	3.83
232.422	3.81
232.798	3.5
233.173	3.17
233.549	3.12
233.924	3.03
234.299	2.53
234.674	2.48
235.05	2.49
235.425	2.5
235.8	2.4
236.175	2.37
236.55	2.3
236.925	2.25
237.3	2.3
237.675	2.22
238.049	2.25
238.424	2.32
238.799	2.35
239.174	2.29
239.548	2.24
239.923	2.21
240.297	2.18
240.672	2.13
241.046	2.11
241.421	2.19
241.795	2.13
242.17	2.21
242.544	2.22
242.918	2.17
243.293	2.17
243.667	2.26
244.041	2.19
244.415	2.11
244.789	1.99
245.163	2.01
245.537	1.96
245.911	1.96
246.285	1.95
246.659	1.9
247.033	1.96
247.406	1.93
247.78	1.86
248.154	1.82
248.528	1.86
248.901	1.82
249.275	1.85
249.648	1.84
250.022	1.88
250.395	1.92
250.769	1.91
251.142	1.98
251.515	1.95
251.888	1.97
252.262	1.98
252.635	1.98
253.008	2.01
253.381	1.96
253.754	2
254.127	2.05
254.5	2.03
254.873	1.99
255.246	1.96
255.619	1.97
255.992	1.98
256.364	2.06
256.737	2.08
257.11	2.14
257.483	2.13
257.855	2.11
258.228	2.09
258.6	2.05
258.973	2.02
259.345	2.04
259.718	2
260.09	1.96
260.462	1.88
260.834	1.86
261.207	1.82
261.579	1.89
261.951	1.86
262.323	1.79
262.695	1.79
263.067	1.81
263.439	1.83
263.811	1.86
264.183	1.9
264.555	1.84
264.927	1.83
265.298	1.85
265.67	1.72
266.042	1.67
266.413	1.64
266.785	1.64
267.156	1.66
267.528	1.69
267.899	1.64
268.271	1.66
268.642	1.62
269.013	1.61
269.385	1.65
269.756	1.71
270.127	1.75
270.498	1.81
270.87	1.72
271.241	1.71
271.612	1.74
271.983	1.78
272.354	1.76
272.724	1.79
273.095	1.76
273.466	1.76
273.837	1.88
274.208	1.83
274.578	1.82
274.949	1.81
275.32	1.83
275.69	1.77
276.061	1.79
276.431	1.8
276.802	1.72
277.172	1.77
277.542	1.78
277.913	1.77
278.283	1.75
278.653	1.72
279.023	1.72
279.394	1.69
279.764	1.63
280.134	1.64
280.504	1.65
280.874	1.65
281.244	1.58
281.614	1.55
281.983	1.53
282.353	1.53
282.723	1.53
283.093	1.46
283.462	1.46
283.832	1.43
284.202	1.48
284.571	1.49
284.941	1.49
285.31	1.5
285.68	1.49
286.049	1.48
286.418	1.42
286.788	1.39
287.157	1.37
287.526	1.37
287.895	1.35
288.264	1.31
288.633	1.32
289.002	1.28
289.371	1.27
289.74	1.24
290.109	1.22
290.478	1.27
290.847	1.29
291.216	1.25
291.585	1.23
291.953	1.19
292.322	1.2
292.691	1.22
293.059	1.21
293.428	1.2
293.796	1.19
294.165	1.18
294.533	1.12
294.901	1.1
295.27	1.16
295.638	1.15
296.006	1.13
296.374	1.14
296.743	1.1
297.111	1.11
297.479	1.08
297.847	1.07
298.215	1.03
298.583	1.05
298.95	1.09
299.318	1.11
299.686	1.07
300.054	1.06
300.422	1.03
300.789	1.01
301.157	1.03
301.525	1.02
301.892	1.05
302.26	1.07
302.627	1.07
302.994	1.04
303.362	1.07
303.729	1.06
304.097	1.03
304.464	0.98
304.831	1.02
305.198	0.97
305.565	1.02
305.932	1.01
306.299	1.03
306.666	1.1
307.033	1.05
307.4	1.12
307.767	1.13
308.134	1.15
308.501	1.12
308.867	1.14
309.234	1.11
309.601	1.16
309.967	1.21
310.334	1.24
310.701	1.19
311.067	1.14
311.433	1.12
311.8	1.11
312.166	1.14
312.533	1.15
312.899	1.16
313.265	1.18
313.631	1.2
313.997	1.19
314.363	1.21
314.729	1.19
315.096	1.18
315.461	1.13
315.827	1.04
316.193	1.12
316.559	1.11
316.925	1.06
317.291	1.05
317.656	1.03
318.022	1.01
318.388	1
318.753	0.91
319.119	0.89
319.484	0.82
319.85	0.89
320.215	0.86
320.581	0.83
320.946	0.82
321.311	0.76
321.676	0.74
322.042	0.72
322.407	0.72
322.772	0.69
323.137	0.7
323.502	0.66
323.867	0.64
324.232	0.71
324.597	0.72
324.962	0.78
325.327	0.74
325.691	0.73
326.056	0.78
326.421	0.73
326.785	0.74
327.15	0.72
327.514	0.77
327.879	0.83
328.243	0.81
328.608	0.87
328.972	0.82
329.337	0.92
329.701	0.95
330.065	0.98
330.429	0.99
330.794	0.96
331.158	1
331.522	1
331.886	1.06
332.25	1.01
332.614	1.04
332.978	1.05
333.342	1.1
333.705	1.06
334.069	1.02
334.433	1.05
334.797	1.02
335.16	0.99
335.524	1.02
335.887	1.01
336.251	1.06
336.614	1.08
336.978	1.06
337.341	1.09
337.705	1.07
338.068	1.09
338.431	1.05
338.794	1.03
339.158	0.95
339.521	0.97
339.884	0.94
340.247	0.94
340.61	0.91
340.973	0.9
341.336	0.98
341.699	1
342.062	0.94
342.424	0.91
342.787	0.94
343.15	0.95
343.512	0.88
343.875	0.89
344.238	0.84
344.6	0.86
344.963	0.9
345.325	0.85
345.688	0.81
346.05	0.85
346.412	0.74
346.775	0.77
347.137	0.73
347.499	0.69
347.861	0.7
348.223	0.73
348.585	0.68
348.947	0.75
349.309	0.73
349.671	0.72
350.033	0.63
350.395	0.56
350.757	0.57
351.118	0.64
351.48	0.59
351.842	0.61
352.203	0.61
352.565	0.66
352.927	0.72
353.288	0.78
353.65	0.71
354.011	0.68
354.372	0.7
354.734	0.75
355.095	0.74
355.456	0.79
355.817	0.76
356.179	0.75
356.54	0.75
356.901	0.81
357.262	0.82
357.623	0.82
357.984	0.81
358.345	0.84
358.705	0.84
359.066	0.91
359.427	0.97
359.788	0.94
360.148	0.93
360.509	0.86
360.87	0.87
361.23	0.87
361.591	0.86
361.951	0.84
362.312	0.85
362.672	0.9
363.032	0.9
363.393	0.92
363.753	0.86
364.113	0.84
364.473	0.85
364.833	0.86
365.193	0.89
365.553	0.91
365.913	0.88
366.273	0.91
366.633	0.96
366.993	0.94
367.353	0.9
367.713	0.92
368.072	0.93
368.432	0.92
368.792	0.99
369.151	0.92
369.511	0.93
369.87	0.91
370.23	0.94
370.589	0.94
370.949	0.92
371.308	0.86
371.667	0.81
372.027	0.86
372.386	0.91
372.745	0.92
373.104	0.87
373.463	0.93
373.822	0.94
374.181	0.97
374.54	0.99
374.899	0.93
375.258	0.86
375.617	0.86
375.975	0.87
376.334	0.89
376.693	0.91
377.052	0.92
377.41	0.96
377.769	0.92
378.127	0.95
378.486	1.06
378.844	1.11
379.202	1.09
379.561	1.13
379.919	1.18
380.277	1.29
380.636	1.41
380.994	1.38
381.352	1.35
381.71	1.35
382.068	1.45
382.426	1.5
382.784	1.57
383.142	1.61
383.5	1.67
383.857	1.78
384.215	1.92
384.573	1.87
384.931	1.87
385.288	1.98
385.646	2.01
386.003	1.99
386.361	2.06
386.718	2.13
387.076	2.28
387.433	2.36
387.791	2.48
388.148	2.62
388.505	2.7
388.862	2.78
389.22	2.94
389.577	3.01
389.934	3.14
390.291	3.35
390.648	3.52
391.005	3.69
391.362	3.85
391.718	3.96
392.075	4.18
392.432	4.33
392.789	4.56
393.145	4.78
393.502	5.14
393.859	5.45
394.215	5.76
394.572	6.09
394.928	6.45
395.285	6.71
395.641	7.03
395.997	7.26
396.354	7.6
396.71	7.92
397.066	8.27
397.422	8.64
397.778	9.06
398.134	9.34
398.491	9.71
398.846	10.14
399.202	10.51
399.558	10.9
399.914	11.32
400.27	11.65
400.626	12.08
400.981	12.45
401.337	12.97
401.693	13.43
402.048	13.94
402.404	14.43
402.759	14.89
403.115	15.29
403.47	15.85
403.826	16.47
404.181	17.01
404.536	17.54
404.892	18.12
405.247	18.55
405.602	19.12
405.957	19.64
406.312	20.26
406.667	20.85
407.022	21.41
407.377	21.95
407.732	22.55
408.087	23.18
408.442	23.78
408.796	24.31
409.151	25
409.506	25.64
409.86	26.22
410.215	26.72
410.57	27.32
410.924	27.87
411.279	28.4
411.633	28.95
411.987	29.54
412.342	30.05
412.696	30.4
413.05	30.91
413.404	31.38
413.758	31.95
414.113	32.55
414.467	33.05
414.821	33.54
415.175	33.92
415.529	34.26
415.882	34.71
416.236	35.17
416.59	35.62
416.944	35.99
417.298	36.52
417.651	36.92
418.005	37.26
418.358	37.59
418.712	37.98
419.065	38.36
419.419	38.59
419.772	38.75
420.126	39.1
420.479	39.46
420.832	39.64
421.185	39.76
421.539	40.08
421.892	40.36
422.245	40.65
422.598	40.94
422.951	41.26
423.304	41.5
423.657	41.65
424.01	41.98
424.363	42.27
424.715	42.58
425.068	42.85
425.421	43.16
425.773	43.32
426.126	43.52
426.479	43.6
426.831	43.77
427.184	44.07
427.536	44.23
427.889	44.34
428.241	44.57
428.593	44.87
428.945	44.98
429.298	45.15
429.65	45.42
430.002	45.78
430.354	45.99
430.706	46.15
431.058	46.26
431.41	46.35
431.762	46.32
432.114	46.4
432.466	46.57
432.817	46.53
433.169	46.78
433.521	46.89
433.872	46.92
434.224	46.85
434.576	46.81
434.927	46.73
435.279	46.81
435.63	46.89
435.981	46.78
436.333	46.75
436.684	46.82
437.035	46.79
437.387	46.73
437.738	46.64
438.089	46.54
438.44	46.58
438.791	46.46
439.142	46.44
439.493	46.36
439.844	46.22
440.195	46.17
440.545	46.19
440.896	46.16
441.247	46.21
441.598	46.27
441.948	46.19
442.299	46.16
442.649	46.13
443	46.14
443.35	46.24
443.701	46.39
444.051	46.58
444.401	46.46
444.752	46.49
445.102	46.57
445.452	46.61
445.802	46.69
446.152	46.74
446.502	46.97
446.852	47.25
447.202	47.19
447.552	47.24
447.902	47.24
448.252	47.38
448.602	47.7
448.952	47.7
449.301	47.78
449.651	47.93
450.001	48
450.35	48.05
450.7	48.1
451.049	48.24
451.399	48.46
451.748	48.57
452.097	48.57
452.447	48.6
452.796	48.62
453.145	48.86
453.494	48.93
453.843	49.03
454.193	49.18
454.542	49.19
454.891	49.39
455.239	49.56
455.588	49.64
455.937	50.03
456.286	50.19
456.635	50.31
456.984	50.53
457.332	50.5
457.681	50.67
458.03	50.87
458.378	50.91
458.727	50.96
459.075	51.25
459.423	51.24
459.772	51.38
460.12	51.42
460.468	51.53
460.817	51.85
461.165	51.99
461.513	52.2
461.861	52.43
462.209	52.62
462.557	52.54
462.905	52.69
463.253	52.82
463.601	52.73
463.949	52.7
464.297	52.6
464.644	52.39
464.992	52.41
465.34	52.4
465.687	52.32
466.035	52.42
466.383	52.43
466.73	52.33
467.078	52.27
467.425	52.17
467.772	52.02
468.12	52.09
468.467	51.98
468.814	52.1
469.161	52.03
469.508	51.74
469.856	51.57
470.203	51.32
470.55	51.15
470.897	50.89
471.243	50.95
471.59	50.78
471.937	50.68
472.284	50.71
472.631	50.63
472.977	50.66
473.324	50.38
473.671	50.32
474.017	50.28
474.364	50.17
474.71	50.01
475.057	49.94
475.403	49.93
475.749	49.87
476.096	49.99
476.442	50.02
476.788	50.07
477.134	50.06
477.48	49.91
477.826	49.96
478.172	49.97
478.518	50.06
478.864	50.18
479.21	50.3
479.556	50.58
479.902	50.78
480.248	50.85
480.593	51.13
480.939	51.32
481.285	51.51
481.63	51.65
481.976	51.99
482.321	52.05
482.667	52.31
483.012	52.48
483.357	52.79
483.703	53.04
484.048	53.25
484.393	53.52
484.738	53.81
485.084	54.05
485.429	54.22
485.774	54.5
486.119	54.84
486.464	55.1
486.808	55.49
487.153	55.75
487.498	55.98
487.843	56.25
488.188	56.44
488.532	56.56
488.877	56.97
489.222	57.12
489.566	57.31
489.911	57.48
490.255	57.58
490.6	57.74
490.944	57.99
491.288	58.18
491.633	58.33
491.977	58.36
492.321	58.5
492.665	58.74
493.009	58.9
493.353	58.98
493.697	58.99
494.041	58.98
494.385	59.07
494.729	59.01
495.073	59.06
495.417	59.13
495.76	59.24
496.104	59.23
496.448	59.24
496.791	59.29
497.135	59.42
497.479	59.33
497.822	59.46
498.165	59.49
498.509	59.6
498.852	59.69
499.196	59.83
499.539	59.9
499.882	59.86
500.225	59.99
500.568	60.08
500.911	59.97
501.254	59.9
501.597	59.91
501.94	59.91
502.283	60
502.626	60.06
502.969	60.17
503.312	60.36
503.654	60.39
503.997	60.47
504.34	60.37
504.682	60.38
505.025	60.36
505.367	60.28
505.71	60.22
506.052	60.33
506.395	60.23
506.737	60.25
507.079	60.15
507.421	60.19
507.764	60.14
508.106	60.04
508.448	60.07
508.79	59.94
509.132	59.86
509.474	60.02
509.816	59.98
510.158	59.89
510.499	59.77
510.841	59.75
511.183	59.79
511.525	59.7
511.866	59.46
512.208	59.42
512.549	59.26
512.891	59.37
513.232	59.51
513.574	59.51
513.915	59.6
514.256	59.66
514.598	59.67
514.939	59.7
515.28	59.7
515.621	59.69
515.962	59.59
516.303	59.6
516.644	59.66
516.985	59.57
517.326	59.77
517.667	59.86
518.008	59.76
518.349	59.72
518.69	59.63
519.03	59.64
519.371	59.68
519.712	59.73
520.052	59.7
520.393	59.89
520.733	59.87
521.074	59.95
521.414	59.92
521.754	59.77
522.095	59.68
522.435	59.79
522.775	59.75
523.115	59.66
523.455	59.44
523.795	59.42
524.135	59.45
524.475	59.47
524.815	59.32
525.155	59.32
525.495	59.32
525.835	59.12
526.175	58.99
526.514	58.9
526.854	59.05
527.194	59.25
527.533	59.38
527.873	59.19
528.212	59.17
528.552	59.15
528.891	59
529.23	58.92
529.57	58.83
529.909	58.77
530.248	58.95
530.587	59.02
530.927	58.9
531.266	58.88
531.605	58.83
531.944	58.96
532.283	58.95
532.621	58.88
532.96	58.78
533.299	58.97
533.638	58.99
533.977	58.96
534.315	58.87
534.654	59.02
534.992	59.04
535.331	58.9
535.67	58.84
536.008	58.62
536.346	58.64
536.685	58.61
537.023	58.55
537.361	58.53
537.7	58.43
538.038	58.38
538.376	58.29
538.714	58.32
539.052	58.28
539.39	58.17
539.728	58.14
540.066	58.08
540.404	58.06
540.741	58.04
541.079	58.06
541.417	57.97
541.755	57.87
542.092	57.79
542.43	57.86
542.767	57.93
543.105	57.99
543.442	58.05
543.78	57.96
544.117	57.93
544.454	57.9
544.792	57.95
545.129	57.99
545.466	57.93
545.803	58.06
546.14	58.1
546.477	58.19
546.814	58.01
547.151	57.69
547.488	57.71
547.825	57.74
548.162	57.85
548.499	57.84
548.835	57.66
549.172	57.68
549.509	57.76
549.845	57.99
550.182	57.95
550.518	57.98
550.855	57.91
551.191	57.89
551.528	57.74
551.864	57.63
552.2	57.71
552.537	57.76
552.873	57.82
553.209	57.85
553.545	57.92
553.881	57.89
554.217	57.71
554.553	57.86
554.889	57.68
555.225	57.77
555.561	57.92
555.896	57.8
556.232	57.69
556.568	57.58
556.903	57.71
557.239	57.9
557.575	57.77
557.91	57.73
558.245	57.64
558.581	57.58
558.916	57.71
559.252	57.79
559.587	57.78
559.922	57.6
560.257	57.7
560.592	57.63
560.928	57.62
561.263	57.92
561.598	57.78
561.933	57.46
562.267	57.59
562.602	57.7
562.937	57.46
563.272	57.66
563.607	57.76
563.941	57.81
564.276	57.95
564.611	58.08
564.945	58.04
565.28	57.83
565.614	57.81
565.949	57.9
566.283	57.93
566.617	58.02
566.951	58.03
567.286	57.91
567.62	57.93
567.954	58.08
568.288	58.26
568.622	58.28
568.956	58.3
569.29	58.23
569.624	58.06
569.958	58.13
570.292	58.3
570.626	58.48
570.959	58.46
571.293	58.52
571.627	58.53
571.96	58.47
572.294	58.54
572.627	58.53
572.961	58.57
573.294	58.67
573.627	58.76
573.961	58.79
574.294	58.79
574.627	58.84
574.961	58.96
575.294	58.99
575.627	59.05
575.96	59.03
576.293	59.04
576.626	59.04
576.959	59.07
577.292	59.09
577.624	59.14
577.957	59.19
578.29	59.29
578.623	59.28
578.955	59.07
579.288	59.07
579.62	59.18
579.953	59.24
580.285	59.45
580.618	59.45
580.95	59.53
581.282	59.47
581.615	59.44
581.947	59.47
582.279	59.6
582.611	59.62
582.943	59.67
583.275	59.66
583.607	59.78
583.939	59.82
584.271	59.84
584.603	59.92
584.935	60.02
585.267	60.01
585.598	60.17
585.93	60.25
586.262	60.29
586.593	60.21
586.925	60.25
587.256	60.42
587.588	60.63
587.919	60.72
588.25	60.73
588.582	60.65
588.913	60.62
589.244	60.64
589.575	60.85
589.907	61.02
590.238	61.1
590.569	61.01
590.9	61.17
591.231	61.13
591.562	61.18
591.892	61.15
592.223	61.31
592.554	61.34
592.885	61.3
593.215	61.4
593.546	61.47
593.877	61.4
594.207	61.38
594.538	61.35
594.868	61.67
595.198	61.7
595.529	61.72
595.859	61.82
596.189	61.83
596.52	61.89
596.85	61.98
597.18	62.26
597.51	62.24
597.84	62.19
598.17	62.15
598.5	62.17
598.83	62.33
599.16	62.28
599.489	62.39
599.819	62.22
600.149	62.19
600.479	62.12
600.808	62.27
601.138	62.33
601.467	62.23
601.797	62.23
602.126	62.22
602.456	62.32
602.785	62.46
603.114	62.28
603.443	62.51
603.773	62.72
604.102	62.72
604.431	62.8
604.76	62.88
605.089	62.89
605.418	62.72
605.747	62.81
606.076	62.76
606.405	62.69
606.733	62.85
607.062	62.82
607.391	62.88
607.72	62.76
608.048	62.92
608.377	63.06
608.705	63.1
609.034	63.16
609.362	63.37
609.69	63.42
610.019	63.5
610.347	63.64
610.675	63.72
611.004	63.9
611.332	63.86
611.66	63.92
611.988	63.73
612.316	63.52
612.644	63.61
612.972	63.55
613.3	63.6
613.627	63.86
613.955	63.77
614.283	64.18
614.611	64.35
614.938	64.38
615.266	64.54
615.593	64.74
615.921	65.08
616.248	65.1
616.576	65.24
616.903	65.6
617.23	65.84
617.558	65.91
617.885	66.06
618.212	66.09
618.539	66.17
618.866	66.15
619.193	66.09
619.52	66.15
619.847	65.96
620.174	65.96
620.501	66.09
620.828	66
621.155	66.14
621.481	66.11
621.808	66.21
622.135	66.34
622.461	66.09
622.788	66.19
623.114	66.29
623.441	66.2
623.767	66.27
624.093	66.16
624.42	66.4
624.746	66.62
625.072	66.67
625.398	66.62
625.725	66.69
626.051	66.73
626.377	67.25
626.703	67.68
627.029	68.18
627.354	68.11
627.68	68.44
628.006	68.65
628.332	68.87
628.658	68.97
628.983	69.06
629.309	68.8
629.634	69.35
629.96	68.85
630.285	69.14
630.611	69.19
630.936	69.26
631.262	69.07
631.587	69.45
631.912	69.39
632.237	70.09
632.562	70.2
632.887	69.95
633.213	69.51
633.538	69.54
633.863	68.63
634.187	68.74
634.512	68.87
634.837	68.54
635.162	68.29
635.487	68.47
635.811	68.36
636.136	68.71
636.461	69.21
636.785	69.16
637.11	68.99
637.434	69.54
637.758	69.07
638.083	69.46
638.407	69.5
638.731	70.09
639.056	70.87
639.38	71
639.704	70.48
640.028	70.97
640.352	70.05
640.676	69.71
641	69.8
641.324	69.8
641.648	69.5
641.972	70.25
642.295	70.05
642.619	70.42
642.943	70.08
643.266	69.79
643.59	69.81
643.913	69.54
644.237	69.48
644.56	68.78
644.884	69.15
645.207	69.03
645.53	68.94
645.854	69.74
646.177	69.53
646.5	69.68
646.823	69.08
647.146	68.56
647.469	68.39
647.792	68.93
648.115	68.45
648.438	68.58
648.761	69.06
649.084	68.82
649.406	69.19
649.729	68.63
650.052	68.37
650.374	68.26
650.697	67.93
651.019	68.1
651.342	68.17
651.664	68.14
651.987	68.2
652.309	68.15
652.631	68.44
652.953	68.48
653.276	68.57
653.598	68.48
653.92	68.26
654.242	68.64
654.564	68.64
654.886	68.76
655.208	68.62
655.53	68.72
655.851	68.59
656.173	68.79
656.495	68.76
656.816	68.61
657.138	68.73
657.46	68.63
657.781	69.68
658.103	70.79
