Data from T1_Reflection__125__23-59-01-079.txt Node

Date: Wed Jun 02 23:59:01 CEST 2021
User: mabdelazizm
Spectrometer: FLMS18565
Trigger mode: 0
Integration Time (sec): 2.000000E0
Scans to average: 1
Electric dark correction enabled: true
Nonlinearity correction enabled: false
Boxcar width: 12
XAxis mode: Wavelengths
Number of Pixels in Spectrum: 2048
>>>>>Begin Spectral Data<<<<<
179.071	-211.04
179.452	-344.66
179.833	-181.5
180.214	-200
180.595	-2220.56
180.977	-780.49
181.358	-435.49
181.739	-980.39
182.12	-421.47
182.501	-460.7
182.882	-214.13
183.262	-327.62
183.643	-131.25
184.024	-51.13
184.405	-22.23
184.786	7.77
185.166	5.66
185.547	18.37
185.927	10.51
186.308	10.21
186.689	11.88
187.069	9.25
187.449	1.82
187.83	3.07
188.21	0.14
188.59	0.9
188.971	2.16
189.351	1.3
189.731	2.62
190.111	4.94
190.491	5.11
190.871	4.37
191.251	5.01
191.631	4.39
192.011	4.43
192.391	4.62
192.771	7.16
193.151	5.68
193.531	5.54
193.91	5.9
194.29	2.53
194.67	1.91
195.049	1.06
195.429	2.47
195.808	2.36
196.188	2.49
196.567	2.94
196.946	4.25
197.326	4.9
197.705	4.89
198.084	4.92
198.464	5.33
198.843	6.24
199.222	6.09
199.601	5.22
199.98	3.96
200.359	3.97
200.738	5.02
201.117	5.82
201.496	6.04
201.875	4.76
202.254	4.5
202.632	5.62
203.011	5.81
203.39	5.26
203.768	6.06
204.147	6.86
204.525	6.55
204.904	5.4
205.282	4.69
205.661	3.36
206.039	4.41
206.418	4.53
206.796	3.82
207.174	4.41
207.552	6.16
207.931	5.54
208.309	4.92
208.687	5.29
209.065	6.86
209.443	7.05
209.821	7.01
210.199	6.08
210.577	5.71
210.954	6.44
211.332	6.86
211.71	6.59
212.088	6.16
212.465	5.95
212.843	5.7
213.221	6.41
213.598	7.84
213.976	7.62
214.353	8.31
214.731	8.2
215.108	8.61
215.485	7.92
215.863	8.02
216.24	8.1
216.617	7.9
216.994	7.14
217.371	6.96
217.749	7.12
218.126	6.88
218.503	5.84
218.88	5.77
219.256	5.75
219.633	6.45
220.01	6.64
220.387	6.46
220.764	6.46
221.14	6.39
221.517	6.38
221.894	6.4
222.27	6.87
222.647	6.75
223.023	5.57
223.4	5.61
223.776	6.02
224.153	6.07
224.529	6.22
224.905	6.69
225.282	6.59
225.658	6.65
226.034	6.51
226.41	6.31
226.786	6.46
227.162	6.11
227.538	6.15
227.914	6.43
228.29	6.28
228.666	6.11
229.042	5.73
229.418	5.63
229.793	5.46
230.169	5.56
230.545	5.4
230.92	5.41
231.296	5.21
231.672	5.08
232.047	4.9
232.422	4.99
232.798	4.82
233.173	4.63
233.549	4.64
233.924	4.56
234.299	4.27
234.674	4.26
235.05	4.17
235.425	4.26
235.8	4.26
236.175	4.2
236.55	4.25
236.925	4.21
237.3	4.11
237.675	4.05
238.049	4.08
238.424	4.15
238.799	4.14
239.174	4.22
239.548	4.18
239.923	4.22
240.297	4.24
240.672	4.33
241.046	4.29
241.421	4.32
241.795	4.29
242.17	4.42
242.544	4.43
242.918	4.37
243.293	4.41
243.667	4.43
244.041	4.4
244.415	4.43
244.789	4.37
245.163	4.4
245.537	4.47
245.911	4.48
246.285	4.56
246.659	4.64
247.033	4.79
247.406	4.78
247.78	4.74
248.154	4.75
248.528	4.73
248.901	4.7
249.275	4.74
249.648	4.75
250.022	4.78
250.395	4.78
250.769	4.74
251.142	4.85
251.515	4.76
251.888	4.74
252.262	4.77
252.635	4.76
253.008	4.79
253.381	4.78
253.754	4.76
254.127	4.8
254.5	4.81
254.873	4.7
255.246	4.67
255.619	4.58
255.992	4.49
256.364	4.43
256.737	4.48
257.11	4.55
257.483	4.53
257.855	4.5
258.228	4.49
258.6	4.43
258.973	4.42
259.345	4.4
259.718	4.38
260.09	4.39
260.462	4.32
260.834	4.33
261.207	4.34
261.579	4.43
261.951	4.4
262.323	4.32
262.695	4.33
263.067	4.36
263.439	4.37
263.811	4.34
264.183	4.32
264.555	4.28
264.927	4.35
265.298	4.37
265.67	4.37
266.042	4.33
266.413	4.27
266.785	4.25
267.156	4.23
267.528	4.27
267.899	4.3
268.271	4.32
268.642	4.32
269.013	4.35
269.385	4.42
269.756	4.4
270.127	4.37
270.498	4.31
270.87	4.23
271.241	4.25
271.612	4.32
271.983	4.27
272.354	4.25
272.724	4.2
273.095	4.25
273.466	4.29
273.837	4.38
274.208	4.32
274.578	4.34
274.949	4.34
275.32	4.33
275.69	4.31
276.061	4.33
276.431	4.32
276.802	4.27
277.172	4.24
277.542	4.21
277.913	4.2
278.283	4.2
278.653	4.13
279.023	4.15
279.394	4.17
279.764	4.19
280.134	4.17
280.504	4.18
280.874	4.13
281.244	4.13
281.614	4.11
281.983	4.13
282.353	4.07
282.723	4.12
283.093	4.09
283.462	4.06
283.832	4.06
284.202	4.04
284.571	4.04
284.941	3.99
285.31	4.01
285.68	4.02
286.049	4.04
286.418	3.99
286.788	4.01
287.157	3.93
287.526	3.95
287.895	3.95
288.264	3.93
288.633	3.89
289.002	3.87
289.371	3.87
289.74	3.8
290.109	3.78
290.478	3.76
290.847	3.76
291.216	3.74
291.585	3.72
291.953	3.65
292.322	3.64
292.691	3.59
293.059	3.55
293.428	3.47
293.796	3.44
294.165	3.53
294.533	3.49
294.901	3.5
295.27	3.48
295.638	3.46
296.006	3.37
296.374	3.41
296.743	3.33
297.111	3.33
297.479	3.33
297.847	3.34
298.215	3.32
298.583	3.33
298.95	3.33
299.318	3.32
299.686	3.32
300.054	3.32
300.422	3.3
300.789	3.33
301.157	3.34
301.525	3.32
301.892	3.39
302.26	3.45
302.627	3.51
302.994	3.5
303.362	3.43
303.729	3.46
304.097	3.43
304.464	3.44
304.831	3.5
305.198	3.51
305.565	3.52
305.932	3.51
306.299	3.54
306.666	3.55
307.033	3.5
307.4	3.5
307.767	3.44
308.134	3.48
308.501	3.48
308.867	3.47
309.234	3.5
309.601	3.45
309.967	3.47
310.334	3.47
310.701	3.41
311.067	3.38
311.433	3.31
311.8	3.28
312.166	3.31
312.533	3.37
312.899	3.33
313.265	3.3
313.631	3.21
313.997	3.19
314.363	3.13
314.729	3.12
315.096	3.08
315.461	3.02
315.827	2.95
316.193	2.93
316.559	2.94
316.925	2.97
317.291	2.93
317.656	2.95
318.022	2.99
318.388	2.88
318.753	2.86
319.119	2.79
319.484	2.72
319.85	2.77
320.215	2.74
320.581	2.69
320.946	2.61
321.311	2.61
321.676	2.53
322.042	2.49
322.407	2.49
322.772	2.55
323.137	2.55
323.502	2.6
323.867	2.58
324.232	2.6
324.597	2.63
324.962	2.7
325.327	2.71
325.691	2.72
326.056	2.75
326.421	2.74
326.785	2.72
327.15	2.67
327.514	2.71
327.879	2.72
328.243	2.76
328.608	2.83
328.972	2.81
329.337	2.84
329.701	2.87
330.065	2.96
330.429	2.9
330.794	2.88
331.158	2.91
331.522	2.9
331.886	2.92
332.25	2.87
332.614	2.87
332.978	2.82
333.342	2.85
333.705	2.78
334.069	2.75
334.433	2.82
334.797	2.81
335.16	2.78
335.524	2.74
335.887	2.7
336.251	2.72
336.614	2.73
336.978	2.73
337.341	2.7
337.705	2.67
338.068	2.73
338.431	2.72
338.794	2.73
339.158	2.64
339.521	2.6
339.884	2.62
340.247	2.59
340.61	2.59
340.973	2.53
341.336	2.57
341.699	2.58
342.062	2.63
342.424	2.58
342.787	2.57
343.15	2.55
343.512	2.5
343.875	2.42
344.238	2.41
344.6	2.43
344.963	2.49
345.325	2.43
345.688	2.39
346.05	2.41
346.412	2.31
346.775	2.36
347.137	2.23
347.499	2.21
347.861	2.23
348.223	2.27
348.585	2.34
348.947	2.39
349.309	2.39
349.671	2.33
350.033	2.34
350.395	2.3
350.757	2.26
351.118	2.22
351.48	2.23
351.842	2.26
352.203	2.22
352.565	2.18
352.927	2.22
353.288	2.22
353.65	2.17
354.011	2.11
354.372	2.19
354.734	2.2
355.095	2.18
355.456	2.21
355.817	2.1
356.179	2.18
356.54	2.18
356.901	2.13
357.262	2.11
357.623	2.06
357.984	2.03
358.345	2.01
358.705	2.04
359.066	2.03
359.427	2.01
359.788	1.99
360.148	1.98
360.509	1.94
360.87	1.95
361.23	1.98
361.591	2.07
361.951	2.05
362.312	2.08
362.672	2.1
363.032	2.09
363.393	2.12
363.753	2.13
364.113	2.13
364.473	2.2
364.833	2.32
365.193	2.29
365.553	2.29
365.913	2.31
366.273	2.31
366.633	2.42
366.993	2.35
367.353	2.31
367.713	2.34
368.072	2.37
368.432	2.33
368.792	2.38
369.151	2.33
369.511	2.32
369.87	2.34
370.23	2.36
370.589	2.29
370.949	2.23
371.308	2.18
371.667	2.13
372.027	2.2
372.386	2.15
372.745	2.11
373.104	2.05
373.463	2.01
373.822	1.95
374.181	1.98
374.54	1.92
374.899	1.91
375.258	1.83
375.617	1.73
375.975	1.8
376.334	1.88
376.693	1.89
377.052	1.89
377.41	1.94
377.769	1.91
378.127	1.97
378.486	2.01
378.844	1.98
379.202	1.98
379.561	2
379.919	2.02
380.277	2.06
380.636	2.19
380.994	2.11
381.352	2.12
381.71	2.19
382.068	2.33
382.426	2.31
382.784	2.32
383.142	2.37
383.5	2.41
383.857	2.49
384.215	2.61
384.573	2.53
384.931	2.52
385.288	2.53
385.646	2.44
386.003	2.43
386.361	2.43
386.718	2.43
387.076	2.42
387.433	2.44
387.791	2.44
388.148	2.56
388.505	2.63
388.862	2.69
389.22	2.77
389.577	2.76
389.934	2.89
390.291	2.92
390.648	2.93
391.005	2.95
391.362	3.09
391.718	3.14
392.075	3.16
392.432	3.24
392.789	3.21
393.145	3.32
393.502	3.48
393.859	3.56
394.215	3.74
394.572	3.96
394.928	4.04
395.285	4.14
395.641	4.25
395.997	4.36
396.354	4.54
396.71	4.72
397.066	4.74
397.422	4.86
397.778	5.06
398.134	5.11
398.491	5.28
398.846	5.39
399.202	5.58
399.558	5.79
399.914	5.88
400.27	5.97
400.626	6.16
400.981	6.32
401.337	6.46
401.693	6.75
402.048	6.89
402.404	7.14
402.759	7.34
403.115	7.45
403.47	7.66
403.826	7.89
404.181	8.2
404.536	8.44
404.892	8.69
405.247	8.83
405.602	9.03
405.957	9.34
406.312	9.6
406.667	9.78
407.022	10.02
407.377	10.27
407.732	10.63
408.087	10.85
408.442	11.07
408.796	11.36
409.151	11.64
409.506	11.87
409.86	12.08
410.215	12.43
410.57	12.65
410.924	12.95
411.279	13.13
411.633	13.41
411.987	13.78
412.342	13.99
412.696	14.23
413.05	14.51
413.404	14.81
413.758	15.3
414.113	15.57
414.467	15.84
414.821	16.07
415.175	16.34
415.529	16.6
415.882	16.92
416.236	17.17
416.59	17.25
416.944	17.47
417.298	17.77
417.651	17.98
418.005	18.21
418.358	18.47
418.712	18.71
419.065	18.91
419.419	19.05
419.772	19.26
420.126	19.55
420.479	19.74
420.832	19.69
421.185	19.78
421.539	19.95
421.892	20.05
422.245	20.16
422.598	20.09
422.951	20.37
423.304	20.46
423.657	20.54
424.01	20.69
424.363	20.87
424.715	21.06
425.068	21.1
425.421	21.33
425.773	21.47
426.126	21.67
426.479	21.84
426.831	21.95
427.184	22.09
427.536	22.18
427.889	22.23
428.241	22.44
428.593	22.51
428.945	22.62
429.298	22.85
429.65	23.12
430.002	23.42
430.354	23.65
430.706	23.8
431.058	23.9
431.41	24.05
431.762	23.99
432.114	24.19
432.466	24.35
432.817	24.35
433.169	24.6
433.521	24.59
433.872	24.72
434.224	24.59
434.576	24.66
434.927	24.49
435.279	24.52
435.63	24.45
435.981	24.41
436.333	24.53
436.684	24.6
437.035	24.48
437.387	24.47
437.738	24.37
438.089	24.15
438.44	24.14
438.791	24.02
439.142	23.96
439.493	23.97
439.844	23.91
440.195	23.88
440.545	23.85
440.896	23.72
441.247	23.68
441.598	23.82
441.948	23.56
442.299	23.61
442.649	23.66
443	23.77
443.35	23.75
443.701	23.78
444.051	23.73
444.401	23.74
444.752	23.69
445.102	23.56
445.452	23.45
445.802	23.51
446.152	23.6
446.502	23.65
446.852	23.82
447.202	23.7
447.552	23.78
447.902	23.77
448.252	23.8
448.602	25.31
448.952	25.38
449.301	25.51
449.651	25.62
450.001	25.59
450.35	25.47
450.7	25.68
451.049	25.63
451.399	25.68
451.748	25.84
452.097	25.82
452.447	25.91
452.796	25.92
453.145	26.16
453.494	26.22
453.843	26.3
454.193	26.51
454.542	26.59
454.891	26.66
455.239	26.7
455.588	26.82
455.937	27.14
456.286	27.21
456.635	27.32
456.984	27.32
457.332	25.71
457.681	25.71
458.03	25.77
458.378	25.85
458.727	25.92
459.075	26.07
459.423	26.11
459.772	26.21
460.12	26.18
460.468	26.1
460.817	26.41
461.165	26.48
461.513	26.55
461.861	26.69
462.209	26.89
462.557	26.9
462.905	26.98
463.253	27.1
463.601	27.08
463.949	27.21
464.297	27.08
464.644	26.94
464.992	26.86
465.34	26.83
465.687	26.85
466.035	26.88
466.383	26.91
466.73	26.87
467.078	26.82
467.425	26.84
467.772	26.73
468.12	26.62
468.467	26.52
468.814	26.57
469.161	26.63
469.508	26.32
469.856	26.12
470.203	26.08
470.55	25.85
470.897	25.67
471.243	25.71
471.59	25.49
471.937	25.3
472.284	25.12
472.631	25
472.977	24.89
473.324	24.7
473.671	24.64
474.017	24.51
474.364	24.32
474.71	24.24
475.057	24.12
475.403	23.97
475.749	23.88
476.096	23.84
476.442	23.79
476.788	23.68
477.134	23.7
477.48	23.56
477.826	23.48
478.172	23.51
478.518	23.49
478.864	23.44
479.21	23.41
479.556	23.37
479.902	23.26
480.248	23.18
480.593	23.18
480.939	23.18
481.285	23.21
481.63	23.24
481.976	23.37
482.321	23.31
482.667	23.33
483.012	23.35
483.357	23.39
483.703	23.38
484.048	23.57
484.393	23.59
484.738	23.69
485.084	23.7
485.429	23.7
485.774	23.75
486.119	23.93
486.464	23.99
486.808	24.03
487.153	24.26
487.498	24.28
487.843	24.42
488.188	24.51
488.532	24.66
488.877	24.89
489.222	24.96
489.566	25.18
489.911	25.26
490.255	25.39
490.6	25.53
490.944	25.76
491.288	25.88
491.633	26.06
491.977	26.19
492.321	26.36
492.665	26.52
493.009	26.7
493.353	26.79
493.697	26.93
494.041	27.12
494.385	27.34
494.729	27.32
495.073	27.44
495.417	27.6
495.76	27.62
496.104	27.8
496.448	27.87
496.791	28.05
497.135	28.18
497.479	28.28
497.822	28.44
498.165	28.51
498.509	28.58
498.852	28.57
499.196	28.65
499.539	28.73
499.882	28.86
500.225	28.95
500.568	28.98
500.911	29.02
501.254	28.93
501.597	28.93
501.94	28.98
502.283	29.01
502.626	29.12
502.969	29.07
503.312	29.12
503.654	29.18
503.997	29.24
504.34	29.33
504.682	29.35
505.025	29.33
505.367	29.31
505.71	29.3
506.052	29.35
506.395	29.3
506.737	29.26
507.079	29.27
507.421	29.42
507.764	29.41
508.106	29.33
508.448	29.33
508.79	29.27
509.132	29.26
509.474	29.28
509.816	29.25
510.158	29.2
510.499	29.1
510.841	29.12
511.183	29.05
511.525	29.01
511.866	29.02
512.208	28.93
512.549	28.78
512.891	28.68
513.232	28.63
513.574	28.65
513.915	28.61
514.256	28.59
514.598	28.51
514.939	28.54
515.28	28.46
515.621	28.46
515.962	28.4
516.303	28.38
516.644	28.38
516.985	28.29
517.326	28.35
517.667	28.33
518.008	28.17
518.349	28.17
518.69	28.19
519.03	28.14
519.371	28.1
519.712	28.08
520.052	28
520.393	27.93
520.733	27.92
521.074	27.89
521.414	27.91
521.754	27.79
522.095	27.67
522.435	27.63
522.775	27.56
523.115	27.44
523.455	27.29
523.795	27.27
524.135	27.16
524.475	27.04
524.815	26.92
525.155	26.9
525.495	26.87
525.835	26.69
526.175	26.6
526.514	26.56
526.854	26.58
527.194	26.53
527.533	26.46
527.873	26.31
528.212	26.19
528.552	26.22
528.891	26.13
529.23	26.04
529.57	25.96
529.909	25.79
530.248	25.84
530.587	25.72
530.927	25.73
531.266	25.63
531.605	25.61
531.944	25.64
532.283	25.53
532.621	25.5
532.96	25.45
533.299	25.4
533.638	25.3
533.977	25.18
534.315	25.18
534.654	25.08
534.992	24.99
535.331	24.81
535.67	24.7
536.008	24.55
536.346	24.39
536.685	24.26
537.023	24.1
537.361	24.01
537.7	23.89
538.038	23.88
538.376	23.74
538.714	23.79
539.052	23.76
539.39	23.66
539.728	23.66
540.066	23.59
540.404	23.44
540.741	23.41
541.079	23.4
541.417	23.31
541.755	23.17
542.092	23.01
542.43	22.96
542.767	22.77
543.105	22.74
543.442	22.85
543.78	22.86
544.117	22.78
544.454	22.83
544.792	22.78
545.129	22.82
545.466	22.73
545.803	22.74
546.14	22.66
546.477	22.56
546.814	22.62
547.151	22.37
547.488	22.39
547.825	22.36
548.162	22.38
548.499	22.39
548.835	22.4
549.172	22.44
549.509	22.27
549.845	22.32
550.182	22.39
550.518	22.51
550.855	22.51
551.191	22.56
551.528	22.67
551.864	22.51
552.2	22.44
552.537	22.47
552.873	22.4
553.209	22.51
553.545	22.46
553.881	22.56
554.217	22.52
554.553	22.62
554.889	22.59
555.225	22.55
555.561	22.6
555.896	22.47
556.232	22.37
556.568	22.22
556.903	22.23
557.239	22.26
557.575	22.23
557.91	22.35
558.245	22.44
558.581	22.42
558.916	22.34
559.252	22.37
559.587	22.31
559.922	22.33
560.257	22.4
560.592	22.46
560.928	22.51
561.263	22.79
561.598	22.88
561.933	22.9
562.267	23.09
562.602	23.23
562.937	23.21
563.272	23.33
563.607	23.35
563.941	23.46
564.276	23.55
564.611	23.58
564.945	23.63
565.28	23.58
565.614	23.57
565.949	23.8
566.283	23.79
566.617	23.87
566.951	23.9
567.286	24.01
567.62	24.07
567.954	24.19
568.288	24.24
568.622	24.27
568.956	24.23
569.29	24.28
569.624	24.18
569.958	24.14
570.292	24.2
570.626	24.23
570.959	24.24
571.293	24.35
571.627	24.36
571.96	24.46
572.294	24.48
572.627	24.62
572.961	24.68
573.294	24.82
573.627	24.95
573.961	25.01
574.294	24.98
574.627	25.05
574.961	25.09
575.294	25.14
575.627	25.09
575.96	25.11
576.293	25.13
576.626	25.08
576.959	25.2
577.292	25.28
577.624	25.33
577.957	25.43
578.29	25.56
578.623	25.57
578.955	25.46
579.288	25.59
579.62	25.56
579.953	25.67
580.285	25.74
580.618	25.82
580.95	25.82
581.282	25.88
581.615	25.9
581.947	25.87
582.279	25.88
582.611	25.96
582.943	26
583.275	25.99
583.607	26.04
583.939	26.16
584.271	26.18
584.603	26.26
584.935	26.4
585.267	26.37
585.598	26.51
585.93	26.52
586.262	26.58
586.593	26.65
586.925	26.76
587.256	26.95
587.588	26.9
587.919	27.06
588.25	27.13
588.582	27.08
588.913	27.04
589.244	27.07
589.575	27.18
589.907	27.23
590.238	27.37
590.569	27.53
590.9	27.58
591.231	27.75
591.562	27.72
591.892	27.84
592.223	27.99
592.554	28.08
592.885	28.19
593.215	28.24
593.546	28.34
593.877	28.39
594.207	28.53
594.538	28.64
594.868	28.72
595.198	28.89
595.529	29.03
595.859	29.23
596.189	29.25
596.52	29.37
596.85	29.52
597.18	29.77
597.51	29.9
597.84	29.9
598.17	29.98
598.5	30.09
598.83	30.29
599.16	30.51
599.489	30.56
599.819	30.79
600.149	30.86
600.479	30.94
600.808	31.13
601.138	31.22
601.467	31.43
601.797	31.69
602.126	31.92
602.456	32.07
602.785	32.18
603.114	32.42
603.443	32.77
603.773	32.91
604.102	33.06
604.431	33.38
604.76	33.46
605.089	33.62
605.418	33.72
605.747	33.95
606.076	34.19
606.405	34.39
606.733	34.57
607.062	34.8
607.391	34.89
607.72	35.2
608.048	35.5
608.377	35.87
608.705	36.2
609.034	36.55
609.362	37.02
609.69	37.36
610.019	37.71
610.347	37.83
610.675	38.04
611.004	38.25
611.332	38.6
611.66	38.59
611.988	38.83
612.316	38.82
612.644	38.92
612.972	39.15
613.3	39.34
613.627	39.81
613.955	40.06
614.283	40.37
614.611	40.66
614.938	41.03
615.266	41.4
615.593	41.79
615.921	41.92
616.248	42.24
616.576	42.7
616.903	43.2
617.23	43.59
617.558	44.06
617.885	44.27
618.212	44.41
618.539	44.84
618.866	45.09
619.193	45.4
619.52	45.32
619.847	45.46
620.174	45.44
620.501	46
620.828	46.2
621.155	46.46
621.481	46.9
621.808	46.99
622.135	47.1
622.461	47.26
622.788	47.45
623.114	47.47
623.441	47.4
623.767	47.52
624.093	47.99
624.42	48.26
624.746	48.74
625.072	48.8
625.398	49.31
625.725	49.31
626.051	49.66
626.377	50.06
626.703	50.32
627.029	50.84
627.354	51.32
627.68	51.58
628.006	52.07
628.332	52.78
628.658	52.8
628.983	53.47
629.309	53.76
629.634	54.21
629.96	54.26
630.285	54.89
630.611	55.42
630.936	55.82
631.262	56.1
631.587	56.52
631.912	57
632.237	57.36
632.562	57.97
632.887	57.53
633.213	57.36
633.538	57.08
633.863	57.11
634.187	57.11
634.512	57.27
634.837	57.5
635.162	57.68
635.487	57.27
635.811	57.23
636.136	57.9
636.461	58.32
636.785	58.49
637.11	58.74
637.434	59.49
637.758	59.44
638.083	59.89
638.407	60.28
638.731	60.41
639.056	60.54
639.38	60.97
639.704	61.3
640.028	61.63
640.352	61.5
640.676	61.58
641	60.88
641.324	61.4
641.648	61.67
641.972	61.83
642.295	62.06
642.619	62.1
642.943	61.68
643.266	61.77
643.59	62.8
643.913	62.99
644.237	62.52
644.56	62.24
644.884	62.24
645.207	61.86
645.53	61.75
645.854	61.94
646.177	62.21
646.5	61.99
646.823	62.29
647.146	62.03
647.469	61.46
647.792	61.47
648.115	61.31
648.438	61.63
648.761	62.34
649.084	63.2
649.406	63.22
649.729	61.99
650.052	61.54
650.374	61.46
650.697	61.24
651.019	61.31
651.342	61.2
651.664	61.07
651.987	61.03
652.309	61.16
652.631	61.32
652.953	61.33
653.276	61.55
653.598	61.46
653.92	61.47
654.242	61.49
654.564	61.35
654.886	61.3
655.208	61.36
655.53	61.51
655.851	61.5
656.173	61.62
656.495	61.47
656.816	61.05
657.138	60.74
657.46	60.56
657.781	62.22
658.103	63.49
658.424	64.23
658.746	65.13
659.067	65.67
659.388	66
