Data from T1_Reflection__97__23-35-53-123.txt Node

Date: Wed Jun 02 23:35:53 CEST 2021
User: mabdelazizm
Spectrometer: FLMS18565
Trigger mode: 0
Integration Time (sec): 2.000000E0
Scans to average: 1
Electric dark correction enabled: true
Nonlinearity correction enabled: false
Boxcar width: 12
XAxis mode: Wavelengths
Number of Pixels in Spectrum: 2048
>>>>>Begin Spectral Data<<<<<
179.071	54.23
179.452	78.26
179.833	9.89
180.214	-36.36
180.595	-596.26
180.977	-310.57
181.358	-190.41
181.739	-615.69
182.12	-195.23
182.501	-246.69
182.882	-62.29
183.262	-140.95
183.643	-55.84
184.024	-23.51
184.405	-13.47
184.786	-3.77
185.166	-16.81
185.547	-5.91
185.927	-18.44
186.308	-13.41
186.689	-12.09
187.069	-10.57
187.449	-11.16
187.83	-13.97
188.21	-12.94
188.59	-12.34
188.971	-9.17
189.351	-8.3
189.731	-5.24
190.111	-2.1
190.491	0.18
190.871	1.58
191.251	1.44
191.631	1.48
192.011	1.99
192.391	2.58
192.771	5.82
193.151	6.24
193.531	6.71
193.91	6.37
194.29	6.29
194.67	6.79
195.049	6.81
195.429	8.92
195.808	8.94
196.188	8.66
196.567	8.29
196.946	8.51
197.326	10.05
197.705	9.82
198.084	10.44
198.464	9.4
198.843	10.17
199.222	9.39
199.601	8.82
199.98	8.96
200.359	8.26
200.738	11.36
201.117	11.06
201.496	10.16
201.875	7.68
202.254	6.73
202.632	6.44
203.011	5.72
203.39	5.8
203.768	5.56
204.147	7.22
204.525	6.25
204.904	5
205.282	4.19
205.661	3.87
206.039	4.61
206.418	5.29
206.796	5.55
207.174	5.74
207.552	5.5
207.931	5.65
208.309	5.57
208.687	5.51
209.065	5.7
209.443	4.59
209.821	4.2
210.199	2.25
210.577	2.07
210.954	2.95
211.332	3.52
211.71	4.44
212.088	4.19
212.465	4.77
212.843	4.53
213.221	3.87
213.598	3.61
213.976	3.07
214.353	3.42
214.731	3.18
215.108	3.38
215.485	2.74
215.863	2.41
216.24	1.43
216.617	1.07
216.994	0.94
217.371	0.94
217.749	1.01
218.126	1.2
218.503	0.96
218.88	0.62
219.256	1.03
219.633	1.1
220.01	1.44
220.387	2.27
220.764	2.5
221.14	1.92
221.517	1.84
221.894	1.5
222.27	2.41
222.647	2.81
223.023	2.18
223.4	2.78
223.776	3.35
224.153	3.19
224.529	2.99
224.905	3.78
225.282	3.89
225.658	4.25
226.034	4.19
226.41	4.39
226.786	4.53
227.162	4.69
227.538	4.96
227.914	4.91
228.29	5.03
228.666	4.66
229.042	4.49
229.418	4.31
229.793	3.84
230.169	3.78
230.545	3.64
230.92	3.69
231.296	3.71
231.672	3.67
232.047	3.72
232.422	3.9
232.798	3.79
233.173	3.48
233.549	3.55
233.924	3.42
234.299	3.07
234.674	3.16
235.05	3.02
235.425	3.1
235.8	2.98
236.175	2.84
236.55	2.78
236.925	2.63
237.3	2.69
237.675	2.63
238.049	2.77
238.424	2.85
238.799	2.82
239.174	2.91
239.548	2.91
239.923	2.95
240.297	2.89
240.672	2.85
241.046	2.72
241.421	2.7
241.795	2.62
242.17	2.73
242.544	2.8
242.918	2.84
243.293	2.97
243.667	3.05
244.041	2.94
244.415	2.96
244.789	2.95
245.163	2.98
245.537	3.04
245.911	3
246.285	3.04
246.659	3.03
247.033	3.09
247.406	3.1
247.78	3.07
248.154	3.1
248.528	3.07
248.901	3.06
249.275	3.06
249.648	3.07
250.022	3.09
250.395	3.15
250.769	3.18
251.142	3.23
251.515	3.15
251.888	3.12
252.262	3.03
252.635	3
253.008	2.99
253.381	2.92
253.754	2.87
254.127	2.9
254.5	2.89
254.873	2.77
255.246	2.76
255.619	2.78
255.992	2.73
256.364	2.75
256.737	2.77
257.11	2.83
257.483	2.81
257.855	2.79
258.228	2.79
258.6	2.78
258.973	2.79
259.345	2.84
259.718	2.77
260.09	2.71
260.462	2.63
260.834	2.61
261.207	2.59
261.579	2.7
261.951	2.67
262.323	2.59
262.695	2.63
263.067	2.65
263.439	2.55
263.811	2.54
264.183	2.55
264.555	2.47
264.927	2.41
265.298	2.42
265.67	2.34
266.042	2.27
266.413	2.22
266.785	2.2
267.156	2.21
267.528	2.14
267.899	2.16
268.271	2.14
268.642	2.06
269.013	2.03
269.385	2.07
269.756	2.08
270.127	2.06
270.498	2.08
270.87	1.99
271.241	1.94
271.612	1.94
271.983	1.94
272.354	1.93
272.724	1.98
273.095	1.98
273.466	2
273.837	2.12
274.208	2.11
274.578	2.11
274.949	2.2
275.32	2.21
275.69	2.17
276.061	2.14
276.431	2.16
276.802	2.12
277.172	2.08
277.542	2.08
277.913	2.1
278.283	2.12
278.653	2.03
279.023	2.08
279.394	2.09
279.764	2.02
280.134	2.06
280.504	2.09
280.874	2.13
281.244	2.07
281.614	2.08
281.983	2.05
282.353	2.07
282.723	2.14
283.093	2.05
283.462	2.03
283.832	2.01
284.202	1.96
284.571	1.92
284.941	1.87
285.31	1.9
285.68	1.86
286.049	1.9
286.418	1.88
286.788	1.96
287.157	1.89
287.526	1.88
287.895	1.92
288.264	1.88
288.633	1.82
289.002	1.87
289.371	1.84
289.74	1.77
290.109	1.7
290.478	1.74
290.847	1.74
291.216	1.75
291.585	1.64
291.953	1.56
292.322	1.56
292.691	1.57
293.059	1.54
293.428	1.51
293.796	1.5
294.165	1.55
294.533	1.51
294.901	1.52
295.27	1.54
295.638	1.49
296.006	1.37
296.374	1.44
296.743	1.38
297.111	1.35
297.479	1.34
297.847	1.33
298.215	1.29
298.583	1.29
298.95	1.33
299.318	1.35
299.686	1.32
300.054	1.29
300.422	1.24
300.789	1.32
301.157	1.29
301.525	1.3
301.892	1.26
302.26	1.31
302.627	1.29
302.994	1.28
303.362	1.29
303.729	1.27
304.097	1.23
304.464	1.16
304.831	1.2
305.198	1.17
305.565	1.18
305.932	1.23
306.299	1.24
306.666	1.22
307.033	1.26
307.4	1.29
307.767	1.28
308.134	1.31
308.501	1.29
308.867	1.3
309.234	1.35
309.601	1.37
309.967	1.31
310.334	1.32
310.701	1.24
311.067	1.27
311.433	1.26
311.8	1.29
312.166	1.31
312.533	1.32
312.899	1.33
313.265	1.32
313.631	1.35
313.997	1.37
314.363	1.38
314.729	1.33
315.096	1.28
315.461	1.27
315.827	1.27
316.193	1.28
316.559	1.28
316.925	1.25
317.291	1.24
317.656	1.24
318.022	1.28
318.388	1.2
318.753	1.18
319.119	1.24
319.484	1.24
319.85	1.34
320.215	1.29
320.581	1.22
320.946	1.19
321.311	1.12
321.676	1.05
322.042	1.03
322.407	1.1
322.772	1.16
323.137	1.17
323.502	1.18
323.867	1.19
324.232	1.24
324.597	1.25
324.962	1.31
325.327	1.29
325.691	1.31
326.056	1.39
326.421	1.38
326.785	1.36
327.15	1.31
327.514	1.34
327.879	1.29
328.243	1.21
328.608	1.24
328.972	1.22
329.337	1.28
329.701	1.32
330.065	1.3
330.429	1.28
330.794	1.34
331.158	1.36
331.522	1.36
331.886	1.32
332.25	1.21
332.614	1.23
332.978	1.2
333.342	1.23
333.705	1.21
334.069	1.14
334.433	1.17
334.797	1.13
335.16	1.08
335.524	1.05
335.887	1.05
336.251	1.06
336.614	1.05
336.978	1.09
337.341	1.14
337.705	1.15
338.068	1.2
338.431	1.18
338.794	1.19
339.158	1.19
339.521	1.28
339.884	1.24
340.247	1.23
340.61	1.12
340.973	1.13
341.336	1.18
341.699	1.16
342.062	1.16
342.424	1.14
342.787	1.1
343.15	1.07
343.512	1.02
343.875	0.99
344.238	0.9
344.6	0.97
344.963	1.03
345.325	1.06
345.688	1.03
346.05	1.04
346.412	0.99
346.775	0.98
347.137	0.9
347.499	0.92
347.861	0.94
348.223	0.95
348.585	0.86
348.947	0.9
349.309	0.89
349.671	0.92
350.033	0.9
350.395	0.85
350.757	0.82
351.118	0.8
351.48	0.82
351.842	0.87
352.203	0.81
352.565	0.83
352.927	0.94
353.288	0.94
353.65	0.88
354.011	0.8
354.372	0.85
354.734	0.88
355.095	0.89
355.456	0.88
355.817	0.88
356.179	0.87
356.54	0.87
356.901	0.83
357.262	0.82
357.623	0.81
357.984	0.82
358.345	0.84
358.705	0.81
359.066	0.79
359.427	0.9
359.788	0.96
360.148	0.96
360.509	0.89
360.87	0.85
361.23	0.92
361.591	0.94
361.951	0.85
362.312	0.95
362.672	1.02
363.032	1.05
363.393	1
363.753	1.01
364.113	0.99
364.473	1.04
364.833	1.07
365.193	1.09
365.553	1.09
365.913	1.03
366.273	1.1
366.633	1.17
366.993	1.1
367.353	1.07
367.713	1.13
368.072	1.12
368.432	1.03
368.792	1.08
369.151	1.04
369.511	1.07
369.87	1.11
370.23	1.15
370.589	1.15
370.949	1.12
371.308	1.06
371.667	0.97
372.027	0.97
372.386	0.92
372.745	0.91
373.104	0.93
373.463	0.96
373.822	0.9
374.181	0.95
374.54	0.91
374.899	0.98
375.258	0.87
375.617	0.85
375.975	0.93
376.334	0.97
376.693	0.94
377.052	0.9
377.41	0.95
377.769	0.91
378.127	0.95
378.486	1.03
378.844	0.98
379.202	0.94
379.561	0.92
379.919	0.93
380.277	0.96
380.636	1.04
380.994	1.07
381.352	1.07
381.71	1.09
382.068	1.08
382.426	1.04
382.784	1.08
383.142	1.05
383.5	1.09
383.857	1.09
384.215	1.14
384.573	1.1
384.931	0.99
385.288	0.96
385.646	0.96
386.003	0.95
386.361	0.92
386.718	0.92
387.076	0.97
387.433	0.87
387.791	0.89
388.148	0.99
388.505	1.02
388.862	1.05
389.22	1.14
389.577	1.19
389.934	1.23
390.291	1.28
390.648	1.19
391.005	1.17
391.362	1.16
391.718	1.12
392.075	1.13
392.432	1.12
392.789	1.1
393.145	1.14
393.502	1.19
393.859	1.23
394.215	1.37
394.572	1.45
394.928	1.54
395.285	1.61
395.641	1.64
395.997	1.7
396.354	1.85
396.71	1.93
397.066	1.95
397.422	1.97
397.778	2.05
398.134	2.01
398.491	1.98
398.846	1.93
399.202	2.02
399.558	2.14
399.914	2.21
400.27	2.33
400.626	2.44
400.981	2.46
401.337	2.53
401.693	2.73
402.048	2.87
402.404	3.01
402.759	3.17
403.115	3.18
403.47	3.3
403.826	3.48
404.181	3.63
404.536	3.71
404.892	3.83
405.247	3.86
405.602	3.99
405.957	4.09
406.312	4.28
406.667	4.44
407.022	4.74
407.377	4.94
407.732	5.2
408.087	5.39
408.442	5.62
408.796	5.87
409.151	6.1
409.506	6.37
409.86	6.7
410.215	7.06
410.57	7.27
410.924	7.51
411.279	7.78
411.633	8.1
411.987	8.48
412.342	8.76
412.696	9.05
413.05	9.43
413.404	9.87
413.758	10.35
414.113	10.81
414.467	11.22
414.821	11.63
415.175	12.05
415.529	12.49
415.882	12.83
416.236	13.24
416.59	13.67
416.944	14.13
417.298	14.68
417.651	15.12
418.005	15.62
418.358	16.08
418.712	16.59
419.065	16.98
419.419	17.42
419.772	17.89
420.126	18.43
420.479	19.06
420.832	19.53
421.185	20.02
421.539	20.54
421.892	21.02
422.245	21.46
422.598	21.89
422.951	22.5
423.304	23.12
423.657	23.66
424.01	24.31
424.363	24.87
424.715	25.46
425.068	26.11
425.421	26.79
425.773	27.4
426.126	27.98
426.479	28.54
426.831	29.03
427.184	29.55
427.536	30.14
427.889	30.76
428.241	31.41
428.593	31.92
428.945	32.49
429.298	32.88
429.65	33.5
430.002	34.03
430.354	34.59
430.706	35.03
431.058	35.62
431.41	36.05
431.762	36.39
432.114	36.75
432.466	37.3
432.817	37.69
433.169	38.27
433.521	38.87
433.872	39.24
434.224	39.51
434.576	39.85
434.927	40.18
435.279	40.61
435.63	41
435.981	41.38
436.333	41.76
436.684	42.28
437.035	42.65
437.387	42.95
437.738	43.13
438.089	43.41
438.44	43.63
438.791	43.9
439.142	44.05
439.493	44.41
439.844	44.63
440.195	45
440.545	45.35
440.896	45.52
441.247	45.88
441.598	46.18
441.948	46.38
442.299	46.49
442.649	46.89
443	47.18
443.35	47.43
443.701	47.75
444.051	48.01
444.401	48.11
444.752	48.28
445.102	48.3
445.452	48.24
445.802	48.29
446.152	48.47
446.502	48.7
446.852	48.98
447.202	49.05
447.552	49.22
447.902	49.46
448.252	49.5
448.602	51.02
448.952	51.19
449.301	51.34
449.651	51.49
450.001	51.44
450.35	51.45
450.7	51.44
451.049	51.58
451.399	51.49
451.748	51.7
452.097	51.6
452.447	51.61
452.796	51.54
453.145	51.71
453.494	51.81
453.843	51.92
454.193	52
454.542	52.03
454.891	52.08
455.239	52.02
455.588	52.16
455.937	52.36
456.286	52.39
456.635	52.56
456.984	52.71
457.332	51.09
457.681	51.03
458.03	50.98
458.378	51.03
458.727	51.01
459.075	51.13
459.423	51.34
459.772	51.42
460.12	51.42
460.468	51.23
460.817	51.48
461.165	51.45
461.513	51.45
461.861	51.66
462.209	51.63
462.557	51.48
462.905	51.46
463.253	51.41
463.601	51.36
463.949	51.47
464.297	51.3
464.644	51.15
464.992	51.07
465.34	50.98
465.687	50.94
466.035	50.92
466.383	50.88
466.73	50.7
467.078	50.7
467.425	50.71
467.772	50.49
468.12	50.33
468.467	50.31
468.814	50.31
469.161	50.45
469.508	50.28
469.856	50.13
470.203	50.07
470.55	49.72
470.897	49.71
471.243	49.71
471.59	49.65
471.937	49.69
472.284	49.61
472.631	49.47
472.977	49.46
473.324	49.43
473.671	49.38
474.017	49.35
474.364	49.14
474.71	49.05
475.057	48.9
475.403	48.82
475.749	48.78
476.096	48.73
476.442	48.72
476.788	48.68
477.134	48.57
477.48	48.44
477.826	48.18
478.172	48.08
478.518	48.05
478.864	48.06
479.21	48.01
479.556	47.89
479.902	47.82
480.248	47.66
480.593	47.65
480.939	47.64
481.285	47.58
481.63	47.49
481.976	47.31
482.321	47.25
482.667	47.03
483.012	46.9
483.357	46.81
483.703	46.76
484.048	46.85
484.393	46.72
484.738	46.72
485.084	46.56
485.429	46.41
485.774	46.32
486.119	46.34
486.464	46.4
486.808	46.38
487.153	46.36
487.498	46.21
487.843	46.11
488.188	45.93
488.532	45.82
488.877	45.71
489.222	45.61
489.566	45.51
489.911	45.32
490.255	45.16
490.6	45.03
490.944	44.96
491.288	44.95
491.633	44.92
491.977	44.81
492.321	44.69
492.665	44.53
493.009	44.51
493.353	44.26
493.697	44.23
494.041	44.11
494.385	44.05
494.729	43.86
495.073	43.75
495.417	43.63
495.76	43.44
496.104	43.37
496.448	43.37
496.791	43.33
497.135	43.29
497.479	43.23
497.822	43.13
498.165	43
498.509	43.04
498.852	42.89
499.196	42.88
499.539	42.73
499.882	42.57
500.225	42.52
500.568	42.49
500.911	42.34
501.254	42.25
501.597	42.14
501.94	42.1
502.283	42.04
502.626	41.99
502.969	41.92
503.312	41.82
503.654	41.73
503.997	41.59
504.34	41.5
504.682	41.41
505.025	41.3
505.367	41.18
505.71	41.03
506.052	40.95
506.395	40.8
506.737	40.71
507.079	40.6
507.421	40.55
507.764	40.51
508.106	40.38
508.448	40.41
508.79	40.33
509.132	40.22
509.474	40.21
509.816	39.99
510.158	39.77
510.499	39.63
510.841	39.54
511.183	39.41
511.525	39.26
511.866	39.03
512.208	38.79
512.549	38.67
512.891	38.65
513.232	38.49
513.574	38.32
513.915	38.25
514.256	38.14
514.598	38.11
514.939	37.91
515.28	37.8
515.621	37.69
515.962	37.55
516.303	37.46
516.644	37.47
516.985	37.32
517.326	37.23
517.667	37.09
518.008	36.99
518.349	36.98
518.69	36.97
519.03	36.83
519.371	36.63
519.712	36.7
520.052	36.65
520.393	36.77
520.733	36.72
521.074	36.76
521.414	36.71
521.754	36.62
522.095	36.56
522.435	36.61
522.775	36.62
523.115	36.47
523.455	36.36
523.795	36.32
524.135	36.19
524.475	36.06
524.815	35.89
525.155	35.74
525.495	35.58
525.835	35.45
526.175	35.4
526.514	35.27
526.854	35.14
527.194	35.13
527.533	35.09
527.873	34.99
528.212	34.71
528.552	34.58
528.891	34.47
529.23	34.47
529.57	34.35
529.909	34.13
530.248	34.1
530.587	34.01
530.927	33.76
531.266	33.64
531.605	33.59
531.944	33.65
532.283	33.53
532.621	33.46
532.96	33.52
533.299	33.53
533.638	33.55
533.977	33.42
534.315	33.43
534.654	33.45
534.992	33.45
535.331	33.32
535.67	33.11
536.008	32.95
536.346	32.97
536.685	32.88
537.023	32.67
537.361	32.56
537.7	32.36
538.038	32.2
538.376	32.14
538.714	32.1
539.052	32.04
539.39	32.03
539.728	31.98
540.066	31.87
540.404	31.8
540.741	31.74
541.079	31.66
541.417	31.44
541.755	31.24
542.092	30.93
542.43	30.94
542.767	30.72
543.105	30.58
543.442	30.63
543.78	30.72
544.117	30.78
544.454	30.91
544.792	30.82
545.129	30.89
545.466	30.8
545.803	30.71
546.14	30.62
546.477	30.55
546.814	30.48
547.151	30.36
547.488	30.33
547.825	30.12
548.162	30.09
548.499	30.06
548.835	29.9
549.172	29.9
549.509	29.88
549.845	29.99
550.182	30.07
550.518	30.14
550.855	30.1
551.191	30.12
551.528	30.08
551.864	29.85
552.2	29.7
552.537	29.61
552.873	29.59
553.209	29.64
553.545	29.62
553.881	29.69
554.217	29.68
554.553	29.87
554.889	29.93
555.225	29.99
555.561	30.04
555.896	29.91
556.232	30.04
556.568	29.98
556.903	29.99
557.239	30.02
557.575	30
557.91	30.05
558.245	30.04
558.581	30.07
558.916	30.22
559.252	30.33
559.587	30.37
559.922	30.43
560.257	30.66
560.592	30.86
560.928	30.92
561.263	31.1
561.598	31.14
561.933	31.09
562.267	31.28
562.602	31.44
562.937	31.36
563.272	31.44
563.607	31.41
563.941	31.41
564.276	31.54
564.611	31.53
564.945	31.64
565.28	31.64
565.614	31.7
565.949	31.82
566.283	31.99
566.617	32.14
566.951	32.05
567.286	32.05
567.62	32.03
567.954	32.12
568.288	32.23
568.622	32.27
568.956	32.23
569.29	32.25
569.624	32.09
569.958	32.06
570.292	32.17
570.626	32.32
570.959	32.36
571.293	32.45
571.627	32.51
571.96	32.66
572.294	32.71
572.627	32.77
572.961	32.84
573.294	32.82
573.627	32.86
573.961	32.94
574.294	32.97
574.627	32.97
574.961	32.94
575.294	33.01
575.627	33
575.96	33.04
576.293	33.06
576.626	33
576.959	32.96
577.292	33
577.624	33.13
577.957	33.24
578.29	33.34
578.623	33.32
578.955	33.14
579.288	33.08
579.62	33.12
579.953	33.14
580.285	33.16
580.618	33.29
580.95	33.34
581.282	33.29
581.615	33.43
581.947	33.48
582.279	33.54
582.611	33.6
582.943	33.66
583.275	33.71
583.607	33.89
583.939	33.99
584.271	34.07
584.603	34.14
584.935	34.2
585.267	34.3
585.598	34.38
585.93	34.41
586.262	34.47
586.593	34.54
586.925	34.55
587.256	34.78
587.588	34.94
587.919	35.11
588.25	35.19
588.582	35.19
588.913	35.15
589.244	35.19
589.575	35.5
589.907	35.58
590.238	35.72
590.569	35.78
590.9	35.77
591.231	35.8
591.562	35.91
591.892	35.87
592.223	36.09
592.554	36.25
592.885	36.28
593.215	36.41
593.546	36.5
593.877	36.51
594.207	36.56
594.538	36.52
594.868	36.62
595.198	36.84
595.529	36.93
595.859	37.12
596.189	37.09
596.52	37.27
596.85	37.48
597.18	37.78
597.51	37.85
597.84	37.85
598.17	37.86
598.5	37.94
598.83	38.18
599.16	38.39
599.489	38.58
599.819	38.73
600.149	38.94
600.479	39
600.808	39.16
601.138	39.38
601.467	39.55
601.797	39.75
602.126	40.03
602.456	40.27
602.785	40.62
603.114	40.86
603.443	41.17
603.773	41.44
604.102	41.56
604.431	41.83
604.76	41.92
605.089	42.1
605.418	42.02
605.747	42.28
606.076	42.43
606.405	42.56
606.733	42.8
607.062	43.05
607.391	43.18
607.72	43.24
608.048	43.37
608.377	43.61
608.705	43.74
609.034	43.89
609.362	44.21
609.69	44.48
610.019	44.73
610.347	45.04
610.675	45.14
611.004	45.23
611.332	45.41
611.66	45.53
611.988	45.52
612.316	45.64
612.644	45.71
612.972	45.89
613.3	46.01
613.627	46.4
613.955	46.54
614.283	46.8
614.611	47.21
614.938	47.33
615.266	47.34
615.593	47.65
615.921	48.09
616.248	48.34
616.576	48.62
616.903	49.08
617.23	49.6
617.558	50.02
617.885	50.23
618.212	50.39
618.539	50.6
618.866	50.73
619.193	51.17
619.52	51.08
619.847	51.15
620.174	51.51
620.501	51.64
620.828	51.78
621.155	51.9
621.481	52.08
621.808	52.19
622.135	52.49
622.461	52.67
622.788	52.88
623.114	53.03
623.441	53.18
623.767	53.34
624.093	53.52
624.42	53.68
624.746	53.91
625.072	54.18
625.398	54.23
625.725	54.13
626.051	54.43
626.377	54.82
626.703	54.83
627.029	55.18
627.354	55.23
627.68	55.61
628.006	56.14
628.332	56.08
628.658	56.5
628.983	56.72
629.309	57.06
629.634	57.37
629.96	57.2
630.285	57.57
630.611	57.88
630.936	57.74
631.262	58.01
631.587	58.28
631.912	58.33
632.237	58.61
632.562	59.12
632.887	58.95
633.213	59.01
633.538	59.08
633.863	58.86
634.187	58.46
634.512	58.65
634.837	58.75
635.162	58.73
635.487	58.49
635.811	58.88
636.136	58.8
636.461	59.13
636.785	58.93
637.11	59.08
637.434	59.33
637.758	59.28
638.083	60.21
638.407	60.25
638.731	60.45
639.056	61.21
639.38	61.74
639.704	61.61
640.028	62.22
640.352	62.05
640.676	61.96
641	61.99
641.324	61.72
641.648	61.74
641.972	62.2
642.295	62.67
642.619	62.94
642.943	62.82
643.266	63.38
643.59	63.96
643.913	64.18
644.237	64.15
644.56	63.78
644.884	63.79
645.207	64.26
645.53	63.69
645.854	64.22
646.177	63.59
646.5	63.89
646.823	63.66
647.146	63.26
647.469	62.57
647.792	62.58
648.115	62.12
648.438	62.33
648.761	63.61
649.084	64.16
649.406	64.5
649.729	63.34
650.052	62.89
650.374	62.94
650.697	62.5
651.019	62.43
651.342	62.19
651.664	62.27
651.987	62.17
652.309	62.33
652.631	62.53
652.953	62.5
653.276	62.28
653.598	62.32
653.92	62.16
654.242	62.5
654.564	62.46
654.886	62.41
655.208	62.39
655.53	62.44
655.851	62.44
656.173	62.66
656.495	62.68
656.816	62.17
657.138	61.76
657.46	61.17
657.781	62.22
658.103	63.09
658.424	63.36
658.746	64.07
659.067	64.62
659.388	64.64
