Data from T1_Reflection__19__22-06-25-293.txt Node

Date: Wed Jun 02 22:06:25 CEST 2021
User: mabdelazizm
Spectrometer: FLMS18565
Trigger mode: 0
Integration Time (sec): 2.000000E0
Scans to average: 1
Electric dark correction enabled: true
Nonlinearity correction enabled: false
Boxcar width: 12
XAxis mode: Wavelengths
Number of Pixels in Spectrum: 2048
>>>>>Begin Spectral Data<<<<<
179.071	-13.5
179.452	97.23
179.833	51.46
180.214	-9.09
180.595	-274.77
180.977	86.18
181.358	37.89
181.739	66.67
182.12	-9.15
182.501	8.56
182.882	29.25
183.262	-36.19
183.643	-10.65
184.024	-2.53
184.405	-3.33
184.786	2.82
185.166	-11.42
185.547	5.16
185.927	1.62
186.308	12.32
186.689	22.48
187.069	17.55
187.449	18.76
187.83	17.26
188.21	15.6
188.59	12.57
188.971	7.5
189.351	7.4
189.731	10.26
190.111	10.55
190.491	12.07
190.871	12.2
191.251	12.55
191.631	14.41
192.011	13.12
192.391	12.07
192.771	14.68
193.151	14.36
193.531	15.36
193.91	15.75
194.29	15.15
194.67	15.65
195.049	14.86
195.429	15.73
195.808	13.68
196.188	12.44
196.567	11.13
196.946	10.01
197.326	9.65
197.705	9.26
198.084	8.15
198.464	9.61
198.843	9.36
199.222	8.81
199.601	9.36
199.98	6.52
200.359	6.42
200.738	6.1
201.117	5.44
201.496	5.44
201.875	5.05
202.254	3.96
202.632	4.18
203.011	3.35
203.39	3.22
203.768	3.45
204.147	4.89
204.525	3.81
204.904	3.89
205.282	3.76
205.661	3.19
206.039	4.59
206.418	5.13
206.796	6.4
207.174	7.49
207.552	8.79
207.931	8.46
208.309	9.4
208.687	9.65
209.065	9.22
209.443	9.95
209.821	9.55
210.199	9.24
210.577	8.75
210.954	8.79
211.332	9.41
211.71	9.08
212.088	8.76
212.465	9.04
212.843	8.88
213.221	8.48
213.598	8.44
213.976	8.31
214.353	7.95
214.731	7.92
215.108	8.07
215.485	6.79
215.863	7.2
216.24	5.97
216.617	5.44
216.994	5.44
217.371	5.24
217.749	5.17
218.126	5.75
218.503	5.32
218.88	4.92
219.256	4.84
219.633	4.76
220.01	5.12
220.387	5.64
220.764	4.95
221.14	4.78
221.517	4.87
221.894	4.48
222.27	5.26
222.647	5.03
223.023	4.4
223.4	4.72
223.776	4.97
224.153	4.85
224.529	4.48
224.905	5.24
225.282	5.19
225.658	5
226.034	4.73
226.41	4.48
226.786	4.44
227.162	4.14
227.538	3.91
227.914	4.02
228.29	3.92
228.666	3.79
229.042	3.67
229.418	3.62
229.793	3.45
230.169	3.66
230.545	3.73
230.92	3.69
231.296	3.57
231.672	3.47
232.047	3.41
232.422	3.38
232.798	3.23
233.173	3.07
233.549	3.15
233.924	3.17
234.299	2.79
234.674	2.83
235.05	2.83
235.425	2.86
235.8	2.81
236.175	2.72
236.55	2.73
236.925	2.73
237.3	2.72
237.675	2.72
238.049	2.78
238.424	2.83
238.799	2.83
239.174	2.81
239.548	2.75
239.923	2.75
240.297	2.7
240.672	2.76
241.046	2.59
241.421	2.64
241.795	2.62
242.17	2.64
242.544	2.61
242.918	2.59
243.293	2.58
243.667	2.62
244.041	2.5
244.415	2.51
244.789	2.57
245.163	2.58
245.537	2.65
245.911	2.66
246.285	2.63
246.659	2.6
247.033	2.62
247.406	2.65
247.78	2.62
248.154	2.61
248.528	2.53
248.901	2.51
249.275	2.51
249.648	2.56
250.022	2.56
250.395	2.6
250.769	2.56
251.142	2.61
251.515	2.61
251.888	2.59
252.262	2.5
252.635	2.47
253.008	2.5
253.381	2.48
253.754	2.47
254.127	2.43
254.5	2.39
254.873	2.29
255.246	2.25
255.619	2.27
255.992	2.24
256.364	2.26
256.737	2.25
257.11	2.28
257.483	2.23
257.855	2.24
258.228	2.23
258.6	2.22
258.973	2.2
259.345	2.18
259.718	2.14
260.09	2.12
260.462	2.05
260.834	2.05
261.207	2.11
261.579	2.17
261.951	2.18
262.323	2.17
262.695	2.16
263.067	2.17
263.439	2.17
263.811	2.21
264.183	2.21
264.555	2.17
264.927	2.12
265.298	2.15
265.67	2.11
266.042	2.04
266.413	2.03
266.785	2.04
267.156	2.09
267.528	2.08
267.899	2.02
268.271	2
268.642	1.98
269.013	2.02
269.385	2.07
269.756	2.13
270.127	2.09
270.498	2.03
270.87	1.97
271.241	1.98
271.612	1.95
271.983	1.94
272.354	1.98
272.724	1.99
273.095	2
273.466	2
273.837	2.08
274.208	2.02
274.578	2
274.949	2.04
275.32	2.12
275.69	2.11
276.061	2.08
276.431	2.02
276.802	2.01
277.172	2.04
277.542	2.03
277.913	2.01
278.283	2.02
278.653	1.93
279.023	1.93
279.394	1.94
279.764	1.97
280.134	1.96
280.504	1.97
280.874	1.99
281.244	1.99
281.614	1.9
281.983	1.89
282.353	1.88
282.723	1.97
283.093	1.92
283.462	1.94
283.832	1.91
284.202	1.89
284.571	1.84
284.941	1.8
285.31	1.85
285.68	1.86
286.049	1.89
286.418	1.89
286.788	1.92
287.157	1.91
287.526	1.89
287.895	1.94
288.264	1.91
288.633	1.88
289.002	1.85
289.371	1.87
289.74	1.86
290.109	1.82
290.478	1.86
290.847	1.91
291.216	1.88
291.585	1.82
291.953	1.71
292.322	1.73
292.691	1.74
293.059	1.73
293.428	1.66
293.796	1.63
294.165	1.62
294.533	1.58
294.901	1.59
295.27	1.57
295.638	1.54
296.006	1.49
296.374	1.5
296.743	1.42
297.111	1.4
297.479	1.36
297.847	1.33
298.215	1.34
298.583	1.31
298.95	1.25
299.318	1.25
299.686	1.22
300.054	1.22
300.422	1.2
300.789	1.27
301.157	1.27
301.525	1.3
301.892	1.29
302.26	1.34
302.627	1.39
302.994	1.41
303.362	1.38
303.729	1.37
304.097	1.34
304.464	1.33
304.831	1.33
305.198	1.35
305.565	1.39
305.932	1.41
306.299	1.44
306.666	1.48
307.033	1.51
307.4	1.5
307.767	1.49
308.134	1.53
308.501	1.5
308.867	1.47
309.234	1.45
309.601	1.43
309.967	1.43
310.334	1.47
310.701	1.43
311.067	1.4
311.433	1.38
311.8	1.39
312.166	1.4
312.533	1.46
312.899	1.47
313.265	1.51
313.631	1.47
313.997	1.5
314.363	1.47
314.729	1.43
315.096	1.41
315.461	1.43
315.827	1.36
316.193	1.36
316.559	1.36
316.925	1.39
317.291	1.39
317.656	1.42
318.022	1.5
318.388	1.5
318.753	1.54
319.119	1.51
319.484	1.48
319.85	1.44
320.215	1.48
320.581	1.47
320.946	1.45
321.311	1.41
321.676	1.35
322.042	1.35
322.407	1.34
322.772	1.37
323.137	1.34
323.502	1.33
323.867	1.37
324.232	1.41
324.597	1.37
324.962	1.5
325.327	1.51
325.691	1.53
326.056	1.59
326.421	1.55
326.785	1.54
327.15	1.49
327.514	1.49
327.879	1.48
328.243	1.45
328.608	1.41
328.972	1.45
329.337	1.44
329.701	1.47
330.065	1.5
330.429	1.49
330.794	1.56
331.158	1.55
331.522	1.55
331.886	1.55
332.25	1.46
332.614	1.47
332.978	1.41
333.342	1.42
333.705	1.41
334.069	1.35
334.433	1.35
334.797	1.3
335.16	1.25
335.524	1.25
335.887	1.28
336.251	1.31
336.614	1.29
336.978	1.31
337.341	1.35
337.705	1.43
338.068	1.44
338.431	1.44
338.794	1.44
339.158	1.4
339.521	1.39
339.884	1.33
340.247	1.32
340.61	1.29
340.973	1.3
341.336	1.37
341.699	1.37
342.062	1.4
342.424	1.4
342.787	1.38
343.15	1.36
343.512	1.34
343.875	1.32
344.238	1.24
344.6	1.32
344.963	1.33
345.325	1.21
345.688	1.21
346.05	1.22
346.412	1.14
346.775	1.13
347.137	1.09
347.499	1.08
347.861	1.05
348.223	1.05
348.585	1.1
348.947	1.13
349.309	1.14
349.671	1.07
350.033	1.04
350.395	1.01
350.757	1
351.118	0.98
351.48	0.95
351.842	0.96
352.203	0.94
352.565	0.93
352.927	1
353.288	1.08
353.65	0.95
354.011	0.87
354.372	0.93
354.734	0.89
355.095	0.86
355.456	0.88
355.817	0.85
356.179	0.85
356.54	0.87
356.901	0.84
357.262	0.79
357.623	0.73
357.984	0.73
358.345	0.68
358.705	0.73
359.066	0.74
359.427	0.77
359.788	0.83
360.148	0.78
360.509	0.7
360.87	0.69
361.23	0.69
361.591	0.73
361.951	0.75
362.312	0.76
362.672	0.79
363.032	0.85
363.393	0.86
363.753	0.84
364.113	0.75
364.473	0.78
364.833	0.83
365.193	0.86
365.553	0.89
365.913	0.89
366.273	0.93
366.633	0.99
366.993	0.95
367.353	0.95
367.713	0.99
368.072	1.01
368.432	0.97
368.792	0.95
369.151	0.94
369.511	1.02
369.87	1.03
370.23	1.05
370.589	1.02
370.949	0.96
371.308	0.91
371.667	0.93
372.027	0.97
372.386	0.99
372.745	1.05
373.104	1.07
373.463	1.07
373.822	0.97
374.181	0.98
374.54	0.89
374.899	0.85
375.258	0.8
375.617	0.81
375.975	0.9
376.334	0.94
376.693	0.92
377.052	0.88
377.41	0.93
377.769	0.9
378.127	0.87
378.486	0.9
378.844	0.91
379.202	0.94
379.561	0.94
379.919	0.9
380.277	0.95
380.636	0.99
380.994	0.92
381.352	0.9
381.71	0.84
382.068	0.9
382.426	0.9
382.784	0.94
383.142	0.94
383.5	0.93
383.857	0.95
384.215	1
384.573	0.89
384.931	0.82
385.288	0.83
385.646	0.76
386.003	0.81
386.361	0.85
386.718	0.85
387.076	0.97
387.433	0.94
387.791	0.91
388.148	0.9
388.505	0.91
388.862	0.88
389.22	0.95
389.577	0.95
389.934	0.99
390.291	0.99
390.648	1.03
391.005	1.02
391.362	0.99
391.718	0.99
392.075	0.92
392.432	0.91
392.789	0.98
393.145	1.03
393.502	1.06
393.859	1.03
394.215	1.08
394.572	1.16
394.928	1.14
395.285	1.12
395.641	1.15
395.997	1.01
396.354	1.05
396.71	1.09
397.066	1.09
397.422	1.07
397.778	1.23
398.134	1.15
398.491	1.18
398.846	1.22
399.202	1.28
399.558	1.36
399.914	1.37
400.27	1.41
400.626	1.4
400.981	1.43
401.337	1.55
401.693	1.6
402.048	1.58
402.404	1.65
402.759	1.74
403.115	1.66
403.47	1.66
403.826	1.69
404.181	1.73
404.536	1.72
404.892	1.83
405.247	1.8
405.602	1.91
405.957	1.93
406.312	2.01
406.667	1.98
407.022	2.03
407.377	1.99
407.732	2.01
408.087	2.04
408.442	1.98
408.796	2.05
409.151	2.02
409.506	2.07
409.86	2.15
410.215	2.17
410.57	2.18
410.924	2.24
411.279	2.27
411.633	2.33
411.987	2.42
412.342	2.42
412.696	2.45
413.05	2.5
413.404	2.52
413.758	2.67
414.113	2.79
414.467	2.76
414.821	2.8
415.175	2.79
415.529	2.77
415.882	2.85
416.236	2.83
416.59	2.8
416.944	2.83
417.298	2.93
417.651	2.89
418.005	2.98
418.358	3.04
418.712	3.04
419.065	3
419.419	3.01
419.772	2.91
420.126	3.01
420.479	3.08
420.832	3.1
421.185	3.07
421.539	3.1
421.892	3.08
422.245	3.18
422.598	3.21
422.951	3.33
423.304	3.26
423.657	3.29
424.01	3.33
424.363	3.41
424.715	3.43
425.068	3.53
425.421	3.57
425.773	3.61
426.126	3.71
426.479	3.75
426.831	3.81
427.184	3.8
427.536	3.93
427.889	4.01
428.241	4.08
428.593	4.21
428.945	4.21
429.298	4.21
429.65	4.33
430.002	4.49
430.354	4.59
430.706	4.64
431.058	4.63
431.41	4.57
431.762	4.5
432.114	4.64
432.466	4.62
432.817	4.6
433.169	4.64
433.521	4.63
433.872	4.67
434.224	4.62
434.576	4.61
434.927	4.5
435.279	4.51
435.63	4.42
435.981	4.45
436.333	4.38
436.684	4.33
437.035	4.24
437.387	4.25
437.738	4.13
438.089	3.99
438.44	3.9
438.791	3.8
439.142	3.67
439.493	3.67
439.844	3.66
440.195	3.58
440.545	3.5
440.896	3.43
441.247	3.46
441.598	3.53
441.948	3.5
442.299	3.5
442.649	3.54
443	3.58
443.35	3.55
443.701	3.56
444.051	3.58
444.401	3.6
444.752	3.55
445.102	3.44
445.452	3.45
445.802	3.45
446.152	3.42
446.502	3.53
446.852	3.58
447.202	3.54
447.552	3.58
447.902	3.59
448.252	3.53
448.602	4.57
448.952	4.7
449.301	4.7
449.651	4.74
450.001	4.8
450.35	4.86
450.7	4.92
451.049	4.9
451.399	4.85
451.748	4.92
452.097	4.93
452.447	5.02
452.796	4.98
453.145	5.11
453.494	5.18
453.843	5.28
454.193	5.41
454.542	5.47
454.891	5.48
455.239	5.42
455.588	5.49
455.937	5.67
456.286	5.83
456.635	6.05
456.984	6.18
457.332	5.12
457.681	5.16
458.03	5.34
458.378	5.33
458.727	5.32
459.075	5.26
459.423	5.36
459.772	5.43
460.12	5.53
460.468	5.61
460.817	5.79
461.165	5.77
461.513	5.88
461.861	5.93
462.209	5.92
462.557	5.95
462.905	5.97
463.253	6.12
463.601	6.14
463.949	6.14
464.297	6.09
464.644	6
464.992	5.88
465.34	5.89
465.687	5.85
466.035	5.66
466.383	5.69
466.73	5.73
467.078	5.86
467.425	5.75
467.772	5.71
468.12	5.67
468.467	5.7
468.814	5.69
469.161	5.62
469.508	5.45
469.856	5.35
470.203	5.37
470.55	5.28
470.897	5.26
471.243	5.27
471.59	5.23
471.937	5.07
472.284	5.14
472.631	5.17
472.977	5.29
473.324	5.19
473.671	5.22
474.017	5.1
474.364	5.02
474.71	5.1
475.057	5.04
475.403	4.81
475.749	4.64
476.096	4.71
476.442	4.8
476.788	4.78
477.134	4.69
477.48	4.69
477.826	4.72
478.172	4.78
478.518	4.8
478.864	4.8
479.21	4.87
479.556	4.95
479.902	4.99
480.248	5.01
480.593	5.09
480.939	5.17
481.285	5.31
481.63	5.39
481.976	5.53
482.321	5.58
482.667	5.67
483.012	5.87
483.357	6.06
483.703	6.24
484.048	6.55
484.393	6.8
484.738	7.09
485.084	7.24
485.429	7.49
485.774	7.77
486.119	8.04
486.464	8.29
486.808	8.62
487.153	8.96
487.498	9.28
487.843	9.65
488.188	10.05
488.532	10.48
488.877	10.94
489.222	11.46
489.566	11.93
489.911	12.4
490.255	12.98
490.6	13.58
490.944	14.29
491.288	14.93
491.633	15.56
491.977	16.16
492.321	16.8
492.665	17.42
493.009	18.15
493.353	18.83
493.697	19.57
494.041	20.29
494.385	21.06
494.729	21.81
495.073	22.62
495.417	23.42
495.76	24.25
496.104	25.13
496.448	25.92
496.791	26.82
497.135	27.68
497.479	28.59
497.822	29.43
498.165	30.29
498.509	31.26
498.852	32.09
499.196	33
499.539	33.76
499.882	34.55
500.225	35.35
500.568	36.22
500.911	36.94
501.254	37.77
501.597	38.57
501.94	39.28
502.283	40.02
502.626	40.83
502.969	41.55
503.312	42.26
503.654	42.95
503.997	43.55
504.34	44.22
504.682	44.94
505.025	45.56
505.367	46.16
505.71	46.86
506.052	47.44
506.395	47.98
506.737	48.6
507.079	49.08
507.421	49.64
507.764	50.19
508.106	50.74
508.448	51.25
508.79	51.72
509.132	52.19
509.474	52.78
509.816	53.15
510.158	53.44
510.499	53.71
510.841	54.18
511.183	54.45
511.525	54.8
511.866	55.15
512.208	55.58
512.549	55.92
512.891	56.41
513.232	56.72
513.574	57.12
513.915	57.43
514.256	57.69
514.598	58.13
514.939	58.54
515.28	58.79
515.621	59.15
515.962	59.54
516.303	59.8
516.644	60.23
516.985	60.49
517.326	60.82
517.667	60.97
518.008	61.09
518.349	61.3
518.69	61.59
519.03	61.91
519.371	62.07
519.712	62.35
520.052	62.55
520.393	62.82
520.733	63
521.074	63.32
521.414	63.53
521.754	63.59
522.095	63.85
522.435	64.17
522.775	64.45
523.115	64.49
523.455	64.48
523.795	64.76
524.135	64.85
524.475	64.84
524.815	65.12
525.155	65.21
525.495	65.39
525.835	65.47
526.175	65.62
526.514	65.73
526.854	66.03
527.194	66.27
527.533	66.5
527.873	66.51
528.212	66.55
528.552	66.72
528.891	66.73
529.23	66.84
529.57	67.05
529.909	67.08
530.248	67.23
530.587	67.24
530.927	67.35
531.266	67.44
531.605	67.61
531.944	67.82
532.283	68.11
532.621	68.12
532.96	68.44
533.299	68.46
533.638	68.58
533.977	68.69
534.315	68.83
534.654	69.05
534.992	69.29
535.331	69.22
535.67	69.27
536.008	69.13
536.346	69.45
536.685	69.52
537.023	69.49
537.361	69.72
537.7	69.72
538.038	69.55
538.376	69.53
538.714	69.73
539.052	69.84
539.39	69.7
539.728	69.64
540.066	69.66
540.404	69.71
540.741	69.54
541.079	69.56
541.417	69.4
541.755	69.4
542.092	69.3
542.43	69.33
542.767	69.23
543.105	69.25
543.442	69.06
543.78	69.27
544.117	69.2
544.454	69.36
544.792	69.33
545.129	69.49
545.466	69.47
545.803	69.31
546.14	69.06
546.477	69.12
546.814	69.05
547.151	68.85
547.488	68.83
547.825	68.87
548.162	68.95
548.499	68.91
548.835	68.82
549.172	68.88
549.509	69.07
549.845	69.36
550.182	69.44
550.518	69.74
550.855	69.78
551.191	69.96
551.528	69.95
551.864	70.05
552.2	69.96
552.537	69.95
552.873	70.02
553.209	69.84
553.545	69.69
553.881	69.94
554.217	69.91
554.553	70.3
554.889	70.37
555.225	70.6
555.561	70.76
555.896	70.78
556.232	70.87
556.568	70.92
556.903	71.11
557.239	71.1
557.575	70.94
557.91	70.83
558.245	70.72
558.581	70.63
558.916	70.6
559.252	70.58
559.587	70.55
559.922	70.45
560.257	70.57
560.592	70.46
560.928	70.54
561.263	70.71
561.598	70.84
561.933	70.96
562.267	71.02
562.602	71.1
562.937	70.95
563.272	71.16
563.607	71.22
563.941	71.23
564.276	71.29
564.611	71.39
564.945	71.38
565.28	71.1
565.614	71.19
565.949	71.35
566.283	71.46
566.617	71.53
566.951	71.54
567.286	71.55
567.62	71.65
567.954	71.71
568.288	71.81
568.622	71.72
568.956	71.76
569.29	71.78
569.624	71.77
569.958	71.78
570.292	71.84
570.626	71.86
570.959	72.03
571.293	72.04
571.627	71.91
571.96	71.89
572.294	72.02
572.627	71.96
572.961	71.91
573.294	71.98
573.627	72.24
573.961	72.21
574.294	72.22
574.627	72.22
574.961	72.18
575.294	72.14
575.627	72.04
575.96	72.05
576.293	72.01
576.626	71.93
576.959	71.93
577.292	72
577.624	72.05
577.957	71.97
578.29	72.13
578.623	72.08
578.955	71.91
579.288	71.72
579.62	71.81
579.953	71.83
580.285	71.98
580.618	71.99
580.95	72.01
581.282	71.99
581.615	71.99
581.947	71.83
582.279	71.88
582.611	71.88
582.943	71.91
583.275	71.94
583.607	72.22
583.939	72.32
584.271	72.25
584.603	72.35
584.935	72.5
585.267	72.55
585.598	72.65
585.93	72.67
586.262	72.68
586.593	72.49
586.925	72.48
587.256	72.61
587.588	72.77
587.919	72.9
588.25	72.87
588.582	72.69
588.913	72.63
589.244	72.72
589.575	72.86
589.907	72.94
590.238	73.09
590.569	73.22
590.9	73.33
591.231	73.29
591.562	73.18
591.892	73.07
592.223	73.16
592.554	73.1
592.885	73.06
593.215	72.93
593.546	72.93
593.877	72.79
594.207	72.68
594.538	72.66
594.868	72.81
595.198	72.87
595.529	72.87
595.859	73.07
596.189	72.92
596.52	73.03
596.85	73.02
597.18	73.06
597.51	72.96
597.84	72.83
598.17	72.77
598.5	72.78
598.83	72.73
599.16	72.71
599.489	72.72
599.819	72.8
600.149	72.71
600.479	72.45
600.808	72.46
601.138	72.31
601.467	72.33
601.797	72.4
602.126	72.38
602.456	72.54
602.785	72.58
603.114	72.66
603.443	72.69
603.773	72.85
604.102	72.62
604.431	72.73
604.76	72.76
605.089	72.8
605.418	72.75
605.747	72.74
606.076	72.76
606.405	72.48
606.733	72.34
607.062	72.44
607.391	72.28
607.72	72.17
608.048	72.27
608.377	72.33
608.705	72.34
609.034	72.36
609.362	72.65
609.69	72.52
610.019	72.54
610.347	72.62
610.675	72.41
611.004	72.52
611.332	72.2
611.66	72.35
611.988	72.13
612.316	72.34
612.644	72.31
612.972	72.35
613.3	72.31
613.627	72.33
613.955	72.4
614.283	72.66
614.611	72.92
614.938	73.15
615.266	73.25
615.593	73.3
615.921	73.55
616.248	73.26
616.576	73.17
616.903	73.37
617.23	73.59
617.558	73.68
617.885	73.84
618.212	73.73
618.539	73.66
618.866	73.67
619.193	73.67
619.52	73.74
619.847	73.6
620.174	73.58
620.501	73.57
620.828	73.51
621.155	73.2
621.481	73.34
621.808	73.28
622.135	73.43
622.461	73.24
622.788	73.22
623.114	73.21
623.441	72.76
623.767	72.76
624.093	72.78
624.42	73.02
624.746	73.55
625.072	73.73
625.398	73.92
625.725	73.98
626.051	74.14
626.377	74.74
626.703	75.12
627.029	75.49
627.354	75.24
627.68	75.79
628.006	76.2
628.332	76.4
628.658	76.03
628.983	76.2
629.309	76.52
629.634	77.04
629.96	77.02
630.285	77.34
630.611	77.13
630.936	77.38
631.262	77.32
631.587	77.8
631.912	77.97
632.237	78.42
632.562	78.72
632.887	78.5
633.213	78.39
633.538	78.39
633.863	77.74
634.187	77.81
634.512	77.65
634.837	77.39
635.162	77.41
635.487	77.64
635.811	77.47
636.136	77.7
636.461	77.95
636.785	77.99
637.11	78.39
637.434	78.82
637.758	77.65
638.083	77.34
638.407	76.94
638.731	77.53
639.056	77.87
639.38	78.18
639.704	77.5
640.028	78
640.352	77.48
640.676	77.76
641	77.2
641.324	77.18
641.648	76.76
641.972	77.03
642.295	77.1
642.619	77.04
642.943	76.81
643.266	76.63
643.59	76.32
643.913	75.76
644.237	75.44
644.56	75.4
644.884	75.63
645.207	75.18
645.53	74.85
645.854	75.51
646.177	76.14
646.5	76.26
646.823	76.52
647.146	76.33
647.469	75.61
647.792	75.96
648.115	75.77
648.438	76
648.761	75.44
649.084	74.75
649.406	74.4
649.729	73.31
650.052	72.99
650.374	72.92
650.697	72.6
651.019	72.55
651.342	72.59
651.664	72.71
651.987	72.9
652.309	72.79
652.631	72.82
652.953	72.92
653.276	72.97
653.598	72.99
653.92	72.81
654.242	72.82
654.564	72.78
654.886	72.55
655.208	72.51
655.53	72.64
655.851	72.79
656.173	72.77
656.495	72.74
656.816	72.54
657.138	72.87
657.46	73.1
657.781	74.74
658.103	75.71
658.424	76.34
658.746	76.66
659.067	77.01
659.388	77.05
659.709	77.03
660.031	76.72
660.352	77.55
660.673	77.31
660.994	77.94
661.315	77.79
661.636	77.57
661.957	77.66
662.278	76.58
662.599	76.57
662.919	77.15
663.24	76.66
663.561	77.22
663.881	76.77
664.202	76.72
664.523	76.39
