Data from T1_Reflection__95__23-34-03-126.txt Node

Date: Wed Jun 02 23:34:03 CEST 2021
User: mabdelazizm
Spectrometer: FLMS18565
Trigger mode: 0
Integration Time (sec): 2.000000E0
Scans to average: 1
Electric dark correction enabled: true
Nonlinearity correction enabled: false
Boxcar width: 12
XAxis mode: Wavelengths
Number of Pixels in Spectrum: 2048
>>>>>Begin Spectral Data<<<<<
179.071	-57.3
179.452	-139.53
179.833	-50.82
180.214	-114.55
180.595	-1300
180.977	-389.43
181.358	-244.84
181.739	-366.67
182.12	-189.86
182.501	-254.09
182.882	-69.35
183.262	-193.33
183.643	-68.37
184.024	-16.7
184.405	-9.05
184.786	-5.7
185.166	-9.51
185.547	0.36
185.927	-7.1
186.308	-1.82
186.689	8.37
187.069	8.23
187.449	8.69
187.83	10.22
188.21	9.86
188.59	6.91
188.971	10.08
189.351	8.87
189.731	16.2
190.111	16.6
190.491	16.1
190.871	14.28
191.251	13.77
191.631	16.34
192.011	17.82
192.391	15.56
192.771	18.78
193.151	17.45
193.531	16.01
193.91	15.1
194.29	15.34
194.67	15.61
195.049	15.09
195.429	15.99
195.808	14.6
196.188	13.54
196.567	12.96
196.946	12.34
197.326	11.73
197.705	11.19
198.084	9.88
198.464	9.97
198.843	9.55
199.222	6.69
199.601	6.06
199.98	6.2
200.359	7.3
200.738	8.9
201.117	7.18
201.496	6.62
201.875	5.87
202.254	5.07
202.632	4.44
203.011	4.41
203.39	4.41
203.768	4.51
204.147	6.07
204.525	6.53
204.904	5.47
205.282	5.06
205.661	4.17
206.039	4.69
206.418	5.05
206.796	6.15
207.174	6.7
207.552	8.45
207.931	7.28
208.309	7.36
208.687	6.84
209.065	7.79
209.443	6.66
209.821	5.76
210.199	4.03
210.577	4.32
210.954	3.98
211.332	5.15
211.71	4.82
212.088	4.66
212.465	4.02
212.843	3.91
213.221	4.26
213.598	3.66
213.976	3.2
214.353	3.79
214.731	4.21
215.108	4.32
215.485	3.53
215.863	3.2
216.24	2.44
216.617	2.49
216.994	2.02
217.371	2.2
217.749	2.46
218.126	3.33
218.503	2.63
218.88	2.59
219.256	3.08
219.633	3.3
220.01	3.42
220.387	3.74
220.764	3.38
221.14	3.56
221.517	4.29
221.894	4.49
222.27	5.24
222.647	4.86
223.023	4.39
223.4	4.73
223.776	5.17
224.153	5.06
224.529	5.03
224.905	5.73
225.282	6.01
225.658	5.75
226.034	5.45
226.41	5.25
226.786	5.05
227.162	4.88
227.538	5.04
227.914	4.96
228.29	4.87
228.666	4.67
229.042	4.58
229.418	4.5
229.793	4.31
230.169	4.44
230.545	4.28
230.92	4.22
231.296	4.07
231.672	4.01
232.047	3.98
232.422	4.09
232.798	3.89
233.173	3.79
233.549	3.75
233.924	3.72
234.299	3.41
234.674	3.26
235.05	3.23
235.425	3.31
235.8	3.28
236.175	3.33
236.55	3.39
236.925	3.25
237.3	3.35
237.675	3.35
238.049	3.41
238.424	3.49
238.799	3.51
239.174	3.58
239.548	3.44
239.923	3.47
240.297	3.44
240.672	3.43
241.046	3.33
241.421	3.33
241.795	3.26
242.17	3.29
242.544	3.21
242.918	3.18
243.293	3.22
243.667	3.3
244.041	3.25
244.415	3.31
244.789	3.24
245.163	3.29
245.537	3.3
245.911	3.23
246.285	3.29
246.659	3.3
247.033	3.32
247.406	3.35
247.78	3.24
248.154	3.19
248.528	3.15
248.901	3.15
249.275	3.18
249.648	3.15
250.022	3.22
250.395	3.23
250.769	3.18
251.142	3.24
251.515	3.22
251.888	3.23
252.262	3.19
252.635	3.15
253.008	3.15
253.381	3.17
253.754	3.16
254.127	3.17
254.5	3.1
254.873	3.03
255.246	2.97
255.619	2.96
255.992	2.9
256.364	2.87
256.737	2.82
257.11	2.87
257.483	2.84
257.855	2.82
258.228	2.82
258.6	2.8
258.973	2.83
259.345	2.86
259.718	2.82
260.09	2.85
260.462	2.73
260.834	2.71
261.207	2.7
261.579	2.78
261.951	2.76
262.323	2.66
262.695	2.66
263.067	2.61
263.439	2.6
263.811	2.66
264.183	2.64
264.555	2.64
264.927	2.58
265.298	2.56
265.67	2.55
266.042	2.51
266.413	2.48
266.785	2.51
267.156	2.47
267.528	2.43
267.899	2.37
268.271	2.33
268.642	2.28
269.013	2.3
269.385	2.3
269.756	2.35
270.127	2.31
270.498	2.29
270.87	2.23
271.241	2.21
271.612	2.24
271.983	2.23
272.354	2.28
272.724	2.31
273.095	2.34
273.466	2.35
273.837	2.45
274.208	2.43
274.578	2.43
274.949	2.44
275.32	2.46
275.69	2.42
276.061	2.45
276.431	2.5
276.802	2.47
277.172	2.47
277.542	2.45
277.913	2.41
278.283	2.4
278.653	2.38
279.023	2.4
279.394	2.43
279.764	2.38
280.134	2.34
280.504	2.35
280.874	2.33
281.244	2.26
281.614	2.18
281.983	2.17
282.353	2.13
282.723	2.15
283.093	2.08
283.462	2.12
283.832	2.12
284.202	2.12
284.571	2.13
284.941	2.07
285.31	2.05
285.68	2.04
286.049	2.04
286.418	2.03
286.788	2.03
287.157	2.01
287.526	2.02
287.895	1.99
288.264	1.98
288.633	1.94
289.002	1.95
289.371	1.97
289.74	1.91
290.109	1.93
290.478	1.97
290.847	1.96
291.216	1.94
291.585	1.85
291.953	1.85
292.322	1.87
292.691	1.82
293.059	1.79
293.428	1.73
293.796	1.74
294.165	1.77
294.533	1.72
294.901	1.68
295.27	1.72
295.638	1.71
296.006	1.68
296.374	1.71
296.743	1.63
297.111	1.64
297.479	1.61
297.847	1.61
298.215	1.56
298.583	1.57
298.95	1.61
299.318	1.58
299.686	1.58
300.054	1.6
300.422	1.53
300.789	1.57
301.157	1.52
301.525	1.53
301.892	1.55
302.26	1.61
302.627	1.62
302.994	1.58
303.362	1.55
303.729	1.54
304.097	1.53
304.464	1.49
304.831	1.51
305.198	1.52
305.565	1.51
305.932	1.54
306.299	1.55
306.666	1.57
307.033	1.59
307.4	1.66
307.767	1.66
308.134	1.68
308.501	1.72
308.867	1.65
309.234	1.66
309.601	1.69
309.967	1.7
310.334	1.68
310.701	1.62
311.067	1.6
311.433	1.57
311.8	1.59
312.166	1.62
312.533	1.71
312.899	1.68
313.265	1.69
313.631	1.7
313.997	1.7
314.363	1.62
314.729	1.61
315.096	1.58
315.461	1.56
315.827	1.49
316.193	1.48
316.559	1.45
316.925	1.46
317.291	1.42
317.656	1.42
318.022	1.49
318.388	1.47
318.753	1.51
319.119	1.48
319.484	1.5
319.85	1.56
320.215	1.54
320.581	1.53
320.946	1.49
321.311	1.45
321.676	1.34
322.042	1.35
322.407	1.34
322.772	1.39
323.137	1.4
323.502	1.51
323.867	1.52
324.232	1.57
324.597	1.56
324.962	1.68
325.327	1.67
325.691	1.67
326.056	1.7
326.421	1.7
326.785	1.68
327.15	1.64
327.514	1.65
327.879	1.61
328.243	1.58
328.608	1.63
328.972	1.65
329.337	1.73
329.701	1.75
330.065	1.81
330.429	1.8
330.794	1.76
331.158	1.82
331.522	1.85
331.886	1.81
332.25	1.71
332.614	1.65
332.978	1.62
333.342	1.66
333.705	1.66
334.069	1.58
334.433	1.61
334.797	1.63
335.16	1.59
335.524	1.57
335.887	1.59
336.251	1.65
336.614	1.63
336.978	1.63
337.341	1.68
337.705	1.65
338.068	1.68
338.431	1.61
338.794	1.58
339.158	1.55
339.521	1.58
339.884	1.62
340.247	1.54
340.61	1.58
340.973	1.57
341.336	1.65
341.699	1.72
342.062	1.71
342.424	1.64
342.787	1.64
343.15	1.67
343.512	1.58
343.875	1.53
344.238	1.51
344.6	1.53
344.963	1.51
345.325	1.43
345.688	1.39
346.05	1.42
346.412	1.34
346.775	1.31
347.137	1.2
347.499	1.21
347.861	1.26
348.223	1.23
348.585	1.19
348.947	1.26
349.309	1.29
349.671	1.23
350.033	1.19
350.395	1.16
350.757	1.08
351.118	1.13
351.48	1.12
351.842	1.14
352.203	1.08
352.565	1.17
352.927	1.21
353.288	1.2
353.65	1.17
354.011	1.15
354.372	1.19
354.734	1.23
355.095	1.21
355.456	1.21
355.817	1.21
356.179	1.24
356.54	1.24
356.901	1.2
357.262	1.21
357.623	1.16
357.984	1.14
358.345	1.17
358.705	1.17
359.066	1.14
359.427	1.16
359.788	1.18
360.148	1.16
360.509	1.11
360.87	1.11
361.23	1.11
361.591	1.1
361.951	1.09
362.312	1.14
362.672	1.17
363.032	1.21
363.393	1.21
363.753	1.2
364.113	1.1
364.473	1.2
364.833	1.25
365.193	1.24
365.553	1.27
365.913	1.21
366.273	1.25
366.633	1.38
366.993	1.31
367.353	1.27
367.713	1.3
368.072	1.32
368.432	1.3
368.792	1.36
369.151	1.29
369.511	1.27
369.87	1.26
370.23	1.32
370.589	1.28
370.949	1.25
371.308	1.2
371.667	1.2
372.027	1.21
372.386	1.17
372.745	1.11
373.104	1.18
373.463	1.15
373.822	1.09
374.181	1.11
374.54	1.03
374.899	1.01
375.258	0.91
375.617	0.81
375.975	0.89
376.334	0.92
376.693	0.91
377.052	0.93
377.41	0.92
377.769	0.86
378.127	0.89
378.486	0.95
378.844	1
379.202	0.93
379.561	0.93
379.919	0.96
380.277	0.99
380.636	1
380.994	0.98
381.352	1
381.71	1.07
382.068	1.07
382.426	1.04
382.784	1.09
383.142	1.09
383.5	1.07
383.857	1.2
384.215	1.31
384.573	1.27
384.931	1.17
385.288	1.17
385.646	1.07
386.003	1.06
386.361	1.07
386.718	1.05
387.076	1.08
387.433	1.05
387.791	1
388.148	1.01
388.505	1.01
388.862	0.92
389.22	1
389.577	0.95
389.934	0.98
390.291	1
390.648	0.97
391.005	0.99
391.362	0.94
391.718	0.86
392.075	0.82
392.432	0.89
392.789	0.8
393.145	0.77
393.502	0.82
393.859	0.92
394.215	0.97
394.572	1.08
394.928	1.08
395.285	1.08
395.641	1.09
395.997	0.99
396.354	1.03
396.71	1.03
397.066	1.05
397.422	1.05
397.778	1.18
398.134	1.06
398.491	1.12
398.846	1.11
399.202	1.16
399.558	1.23
399.914	1.19
400.27	1.23
400.626	1.31
400.981	1.34
401.337	1.31
401.693	1.35
402.048	1.34
402.404	1.34
402.759	1.4
403.115	1.34
403.47	1.34
403.826	1.39
404.181	1.51
404.536	1.46
404.892	1.61
405.247	1.61
405.602	1.62
405.957	1.65
406.312	1.72
406.667	1.7
407.022	1.81
407.377	1.87
407.732	1.91
408.087	1.94
408.442	1.91
408.796	2.01
409.151	2.01
409.506	2.08
409.86	2.09
410.215	2.25
410.57	2.34
410.924	2.46
411.279	2.56
411.633	2.67
411.987	2.88
412.342	2.95
412.696	3.07
413.05	3.26
413.404	3.46
413.758	3.76
414.113	3.95
414.467	4.09
414.821	4.26
415.175	4.42
415.529	4.59
415.882	4.7
416.236	4.83
416.59	4.96
416.944	5.1
417.298	5.42
417.651	5.57
418.005	5.93
418.358	6.2
418.712	6.52
419.065	6.71
419.419	6.95
419.772	7.14
420.126	7.48
420.479	7.72
420.832	7.9
421.185	8.11
421.539	8.36
421.892	8.49
422.245	8.88
422.598	9.07
422.951	9.49
423.304	9.82
423.657	10.16
424.01	10.52
424.363	10.9
424.715	11.36
425.068	11.76
425.421	12.29
425.773	12.7
426.126	13.16
426.479	13.66
426.831	13.98
427.184	14.31
427.536	14.65
427.889	15.01
428.241	15.42
428.593	15.77
428.945	16.15
429.298	16.56
429.65	16.98
430.002	17.47
430.354	17.98
430.706	18.49
431.058	18.85
431.41	19.27
431.762	19.56
432.114	20.08
432.466	20.6
432.817	21.04
433.169	21.51
433.521	21.77
433.872	22.22
434.224	22.43
434.576	22.84
434.927	23.15
435.279	23.5
435.63	23.86
435.981	24.26
436.333	24.71
436.684	25.23
437.035	25.64
437.387	26.08
437.738	26.4
438.089	26.71
438.44	27.07
438.791	27.39
439.142	27.59
439.493	27.91
439.844	28.18
440.195	28.39
440.545	28.72
440.896	28.92
441.247	29.24
441.598	29.45
441.948	29.65
442.299	30.02
442.649	30.25
443	30.48
443.35	30.64
443.701	30.78
444.051	30.95
444.401	31.06
444.752	31.3
445.102	31.42
445.452	31.47
445.802	31.58
446.152	31.69
446.502	31.89
446.852	32.15
447.202	32.29
447.552	32.42
447.902	32.54
448.252	32.64
448.602	34.2
448.952	34.4
449.301	34.57
449.651	34.74
450.001	34.68
450.35	34.89
450.7	35.07
451.049	35.16
451.399	35.36
451.748	35.65
452.097	35.77
452.447	36.01
452.796	36.16
453.145	36.47
453.494	36.52
453.843	36.61
454.193	36.8
454.542	36.91
454.891	37.2
455.239	37.39
455.588	37.51
455.937	37.7
456.286	37.85
456.635	38.25
456.984	38.43
457.332	36.97
457.681	36.9
458.03	36.86
458.378	36.9
458.727	37.02
459.075	37.08
459.423	37.22
459.772	37.38
460.12	37.36
460.468	37.37
460.817	37.56
461.165	37.5
461.513	37.63
461.861	37.63
462.209	37.59
462.557	37.55
462.905	37.52
463.253	37.61
463.601	37.48
463.949	37.38
464.297	37.22
464.644	37.01
464.992	37
465.34	36.74
465.687	36.71
466.035	36.58
466.383	36.69
466.73	36.74
467.078	36.69
467.425	36.64
467.772	36.54
468.12	36.35
468.467	36.24
468.814	36.31
469.161	36.22
469.508	35.93
469.856	35.87
470.203	35.64
470.55	35.52
470.897	35.47
471.243	35.47
471.59	35.39
471.937	35.24
472.284	35.19
472.631	35.08
472.977	35.07
473.324	35.06
473.671	34.93
474.017	34.83
474.364	34.65
474.71	34.53
475.057	34.35
475.403	34.16
475.749	34
476.096	33.88
476.442	33.77
476.788	33.71
477.134	33.65
477.48	33.53
477.826	33.33
478.172	33.37
478.518	33.24
478.864	33.13
479.21	33.13
479.556	33.05
479.902	32.91
480.248	32.73
480.593	32.62
480.939	32.52
481.285	32.45
481.63	32.38
481.976	32.28
482.321	32.21
482.667	32.18
483.012	32.13
483.357	32.17
483.703	32.16
484.048	32.15
484.393	32.14
484.738	32.21
485.084	32.19
485.429	32.19
485.774	32.12
486.119	31.98
486.464	32.02
486.808	32.02
487.153	32
487.498	31.94
487.843	31.88
488.188	31.79
488.532	31.68
488.877	31.67
489.222	31.62
489.566	31.53
489.911	31.44
490.255	31.33
490.6	31.27
490.944	31.2
491.288	31.12
491.633	31.01
491.977	30.98
492.321	30.92
492.665	30.95
493.009	30.85
493.353	30.68
493.697	30.62
494.041	30.45
494.385	30.32
494.729	30.18
495.073	30.06
495.417	29.93
495.76	29.76
496.104	29.69
496.448	29.55
496.791	29.49
497.135	29.44
497.479	29.29
497.822	29.25
498.165	29.18
498.509	29.05
498.852	28.94
499.196	28.85
499.539	28.68
499.882	28.55
500.225	28.46
500.568	28.25
500.911	28.06
501.254	27.82
501.597	27.74
501.94	27.61
502.283	27.46
502.626	27.38
502.969	27.29
503.312	27.25
503.654	27.17
503.997	27.09
504.34	26.98
504.682	26.88
505.025	26.63
505.367	26.55
505.71	26.38
506.052	26.33
506.395	26.17
506.737	26.05
507.079	25.96
507.421	25.84
507.764	25.78
508.106	25.66
508.448	25.55
508.79	25.4
509.132	25.29
509.474	25.22
509.816	25.13
510.158	24.91
510.499	24.72
510.841	24.54
511.183	24.45
511.525	24.37
511.866	24.26
512.208	24.14
512.549	23.97
512.891	23.98
513.232	23.87
513.574	23.92
513.915	23.68
514.256	23.63
514.598	23.6
514.939	23.59
515.28	23.42
515.621	23.33
515.962	23.18
516.303	23.02
516.644	22.86
516.985	22.78
517.326	22.69
517.667	22.59
518.008	22.44
518.349	22.35
518.69	22.35
519.03	22.3
519.371	22.3
519.712	22.16
520.052	22.1
520.393	22.04
520.733	21.96
521.074	21.93
521.414	21.7
521.754	21.63
522.095	21.51
522.435	21.6
522.775	21.57
523.115	21.41
523.455	21.19
523.795	21.19
524.135	21.08
524.475	21
524.815	20.98
525.155	21
525.495	20.96
525.835	21.02
526.175	21
526.514	20.89
526.854	20.86
527.194	20.82
527.533	20.77
527.873	20.62
528.212	20.6
528.552	20.43
528.891	20.38
529.23	20.3
529.57	20.25
529.909	20.31
530.248	20.28
530.587	20.2
530.927	20.03
531.266	19.94
531.605	19.89
531.944	19.95
532.283	19.88
532.621	19.72
532.96	19.76
533.299	19.71
533.638	19.71
533.977	19.59
534.315	19.44
534.654	19.36
534.992	19.37
535.331	19.24
535.67	19.12
536.008	19.02
536.346	18.95
536.685	18.82
537.023	18.72
537.361	18.57
537.7	18.52
538.038	18.28
538.376	18.12
538.714	18.09
539.052	18.04
539.39	18
539.728	18
540.066	17.83
540.404	17.73
540.741	17.57
541.079	17.53
541.417	17.31
541.755	17.01
542.092	16.9
542.43	16.83
542.767	16.67
543.105	16.6
543.442	16.67
543.78	16.66
544.117	16.62
544.454	16.61
544.792	16.51
545.129	16.54
545.466	16.55
545.803	16.52
546.14	16.29
546.477	16.31
546.814	16.24
547.151	16.01
547.488	16.04
547.825	15.93
548.162	15.85
548.499	15.88
548.835	15.8
549.172	15.87
549.509	15.92
549.845	16
550.182	16.09
550.518	16.17
550.855	16.12
551.191	16.17
551.528	16.19
551.864	15.91
552.2	15.88
552.537	15.84
552.873	15.86
553.209	15.98
553.545	15.78
553.881	15.75
554.217	15.75
554.553	15.88
554.889	15.99
555.225	16.08
555.561	16.2
555.896	16.14
556.232	16.17
556.568	16.07
556.903	16.15
557.239	16.19
557.575	16.09
557.91	16.14
558.245	16.13
558.581	16.22
558.916	16.1
559.252	16.24
559.587	16.14
559.922	16.12
560.257	16.35
560.592	16.46
560.928	16.64
561.263	16.78
561.598	16.77
561.933	16.9
562.267	17.02
562.602	17.11
562.937	17.33
563.272	17.29
563.607	17.35
563.941	17.36
564.276	17.39
564.611	17.53
564.945	17.61
565.28	17.54
565.614	17.57
565.949	17.74
566.283	17.83
566.617	18.06
566.951	18.08
567.286	18.22
567.62	18.17
567.954	18.29
568.288	18.34
568.622	18.34
568.956	18.27
569.29	18.15
569.624	18.04
569.958	18.04
570.292	18.12
570.626	18.22
570.959	18.31
571.293	18.33
571.627	18.41
571.96	18.48
572.294	18.53
572.627	18.59
572.961	18.52
573.294	18.58
573.627	18.73
573.961	18.8
574.294	18.77
574.627	18.78
574.961	18.68
575.294	18.74
575.627	18.66
575.96	18.81
576.293	18.77
576.626	18.85
576.959	18.98
577.292	19.03
577.624	19.17
577.957	19.28
578.29	19.41
578.623	19.42
578.955	19.38
579.288	19.37
579.62	19.4
579.953	19.39
580.285	19.44
580.618	19.51
580.95	19.59
581.282	19.68
581.615	19.73
581.947	19.74
582.279	19.81
582.611	19.9
582.943	19.91
583.275	20.09
583.607	20.2
583.939	20.39
584.271	20.4
584.603	20.67
584.935	20.69
585.267	20.67
585.598	20.84
585.93	20.93
586.262	20.99
586.593	21.08
586.925	21.11
587.256	21.22
587.588	21.33
587.919	21.4
588.25	21.52
588.582	21.55
588.913	21.62
589.244	21.64
589.575	21.86
589.907	21.99
590.238	22.03
590.569	22.03
590.9	22.13
591.231	22.29
591.562	22.15
591.892	22.17
592.223	22.28
592.554	22.38
592.885	22.31
593.215	22.37
593.546	22.37
593.877	22.35
594.207	22.38
594.538	22.45
594.868	22.53
595.198	22.75
595.529	22.87
595.859	22.95
596.189	22.97
596.52	23.14
596.85	23.2
597.18	23.39
597.51	23.45
597.84	23.47
598.17	23.51
598.5	23.63
598.83	23.79
599.16	24.02
599.489	24.15
599.819	24.32
600.149	24.4
600.479	24.45
600.808	24.47
601.138	24.66
601.467	24.76
601.797	24.96
602.126	25.09
602.456	25.24
602.785	25.48
603.114	25.67
603.443	25.86
603.773	26.06
604.102	26.21
604.431	26.43
604.76	26.46
605.089	26.64
605.418	26.75
605.747	26.98
606.076	27.07
606.405	27.16
606.733	27.34
607.062	27.67
607.391	27.66
607.72	27.82
608.048	28.13
608.377	28.45
608.705	28.75
609.034	28.96
609.362	29.24
609.69	29.56
610.019	29.88
610.347	30.28
610.675	30.51
611.004	30.57
611.332	30.73
611.66	30.88
611.988	31.04
612.316	31.23
612.644	31.48
612.972	31.74
613.3	32.08
613.627	32.3
613.955	32.58
614.283	33.04
614.611	33.48
614.938	33.6
615.266	33.77
615.593	34.13
615.921	34.49
616.248	34.65
616.576	34.94
616.903	35.34
617.23	36.14
617.558	36.55
617.885	37.04
618.212	37.2
618.539	37.27
618.866	37.44
619.193	37.79
619.52	38.02
619.847	38.25
620.174	38.45
620.501	38.84
620.828	38.91
621.155	39.1
621.481	39.1
621.808	39.4
622.135	39.6
622.461	39.5
622.788	39.77
623.114	40.3
623.441	40.41
623.767	40.58
624.093	40.77
624.42	41.13
624.746	41.63
625.072	41.83
625.398	41.97
625.725	42.35
626.051	42.3
626.377	42.55
626.703	42.79
627.029	43.07
627.354	43.42
627.68	43.9
628.006	44.54
628.332	44.81
628.658	45.05
628.983	45.52
629.309	46.06
629.634	46.47
629.96	46.6
630.285	47.43
630.611	47.96
630.936	48.53
631.262	48.58
631.587	49.27
631.912	49.94
632.237	50.65
632.562	51.21
632.887	51.25
633.213	51.37
633.538	51.69
633.863	51.76
634.187	51.75
634.512	52.62
634.837	53.39
635.162	53.7
635.487	53.68
635.811	54.15
636.136	54.1
636.461	54.44
636.785	54.42
637.11	54.84
637.434	54.87
637.758	55.19
638.083	55.23
638.407	54.76
638.731	55.07
639.056	54.96
639.38	55.28
639.704	55.36
640.028	54.99
640.352	54.7
640.676	54.87
641	54.84
641.324	54.95
641.648	54.54
641.972	54.47
642.295	55.05
642.619	54.99
642.943	54.39
643.266	54.8
643.59	55.31
643.913	55.07
644.237	54.98
644.56	55.33
644.884	55.38
645.207	55.43
645.53	56.07
645.854	55.92
646.177	56.48
646.5	56.86
646.823	57.06
647.146	57.29
647.469	57.16
647.792	57.09
648.115	57.56
648.438	58.27
648.761	59.52
649.084	60.18
649.406	60.44
649.729	59.84
650.052	59.57
650.374	59.73
650.697	59.68
651.019	59.8
651.342	59.82
651.664	59.67
651.987	59.73
652.309	59.89
652.631	59.94
652.953	60.04
653.276	59.91
653.598	59.87
653.92	59.93
654.242	60.11
654.564	59.99
654.886	59.89
655.208	59.82
655.53	59.94
655.851	59.91
656.173	60.05
656.495	59.82
656.816	59.29
657.138	59.21
657.46	59.34
657.781	60.44
658.103	61.83
658.424	62.16
658.746	62.87
659.067	63.15
659.388	62.97
659.709	63.85
660.031	63.68
660.352	63.48
