Data from T1_Reflection__124__23-57-59-080.txt Node

Date: Wed Jun 02 23:57:59 CEST 2021
User: mabdelazizm
Spectrometer: FLMS18565
Trigger mode: 0
Integration Time (sec): 2.000000E0
Scans to average: 1
Electric dark correction enabled: true
Nonlinearity correction enabled: false
Boxcar width: 12
XAxis mode: Wavelengths
Number of Pixels in Spectrum: 2048
>>>>>Begin Spectral Data<<<<<
179.071	-93.99
179.452	-231.62
179.833	-139.16
180.214	-165.45
180.595	-1800
180.977	-798.37
181.358	-430.22
181.739	-866.67
182.12	-371.77
182.501	-305.84
182.882	-75.82
183.262	-150.48
183.643	-37.33
184.024	-3.95
184.405	14.09
184.786	12.79
185.166	13.15
185.547	21.14
185.927	8.83
186.308	10.58
186.689	16.04
187.069	13.6
187.449	12.9
187.83	10.52
188.21	8.38
188.59	7.69
188.971	12.36
189.351	12.37
189.731	14.18
190.111	15.91
190.491	19.2
190.871	17.61
191.251	17.01
191.631	17.81
192.011	16.07
192.391	13.63
192.771	16.52
193.151	15.22
193.531	16.09
193.91	15.39
194.29	15.58
194.67	16.36
195.049	16.36
195.429	17.17
195.808	15.3
196.188	15.01
196.567	14.16
196.946	14.07
197.326	14.92
197.705	14.54
198.084	14.09
198.464	12.43
198.843	11.67
199.222	10.61
199.601	9.76
199.98	7.82
200.359	7.94
200.738	9.05
201.117	9.13
201.496	8.91
201.875	9.34
202.254	8.08
202.632	8.01
203.011	7.08
203.39	7.17
203.768	7.09
204.147	7.54
204.525	6.84
204.904	6.32
205.282	6.25
205.661	4.76
206.039	5.99
206.418	5.03
206.796	5.12
207.174	5.85
207.552	5.85
207.931	6.19
208.309	6.99
208.687	7.15
209.065	8.37
209.443	8.4
209.821	7.49
210.199	6.41
210.577	5.47
210.954	5.09
211.332	4.82
211.71	5.25
212.088	5.06
212.465	6.04
212.843	5.64
213.221	5.81
213.598	5.8
213.976	5.26
214.353	5.8
214.731	6.09
215.108	6.48
215.485	5.42
215.863	6.27
216.24	5.75
216.617	5.98
216.994	5.71
217.371	6.49
217.749	6.56
218.126	6.58
218.503	5.5
218.88	4.8
219.256	5.36
219.633	5.17
220.01	5.39
220.387	5.67
220.764	5.18
221.14	4.39
221.517	4.06
221.894	3.45
222.27	4.01
222.647	4.36
223.023	3.96
223.4	4.19
223.776	4.15
224.153	4.1
224.529	4.12
224.905	4.66
225.282	4.76
225.658	4.61
226.034	4.41
226.41	4.33
226.786	3.77
227.162	3.35
227.538	3.4
227.914	3.48
228.29	3.47
228.666	3.12
229.042	3.06
229.418	3.01
229.793	2.82
230.169	2.93
230.545	3.01
230.92	3.04
231.296	3.1
231.672	2.97
232.047	2.79
232.422	2.75
232.798	2.47
233.173	2.37
233.549	2.28
233.924	2.06
234.299	1.66
234.674	1.54
235.05	1.41
235.425	1.45
235.8	1.35
236.175	1.22
236.55	1.23
236.925	1.12
237.3	1.15
237.675	1.12
238.049	1.27
238.424	1.24
238.799	1.2
239.174	1.26
239.548	1.14
239.923	1.02
240.297	1.04
240.672	0.95
241.046	0.84
241.421	0.8
241.795	0.76
242.17	0.79
242.544	0.8
242.918	0.84
243.293	0.95
243.667	1.06
244.041	1.04
244.415	1.05
244.789	1
245.163	1
245.537	1.11
245.911	1.12
246.285	1.16
246.659	1.14
247.033	1.22
247.406	1.21
247.78	1.21
248.154	1.2
248.528	1.19
248.901	1.22
249.275	1.3
249.648	1.27
250.022	1.28
250.395	1.32
250.769	1.29
251.142	1.31
251.515	1.28
251.888	1.22
252.262	1.17
252.635	1.09
253.008	1.07
253.381	0.98
253.754	1.01
254.127	1.05
254.5	1.05
254.873	0.96
255.246	0.92
255.619	0.92
255.992	0.86
256.364	0.86
256.737	0.86
257.11	0.89
257.483	0.9
257.855	0.88
258.228	0.84
258.6	0.85
258.973	0.84
259.345	0.83
259.718	0.78
260.09	0.81
260.462	0.76
260.834	0.77
261.207	0.79
261.579	0.83
261.951	0.89
262.323	0.84
262.695	0.86
263.067	0.88
263.439	0.88
263.811	0.92
264.183	0.94
264.555	0.94
264.927	0.9
265.298	0.94
265.67	0.89
266.042	0.83
266.413	0.82
266.785	0.78
267.156	0.74
267.528	0.76
267.899	0.68
268.271	0.69
268.642	0.68
269.013	0.7
269.385	0.74
269.756	0.8
270.127	0.81
270.498	0.82
270.87	0.82
271.241	0.78
271.612	0.76
271.983	0.77
272.354	0.76
272.724	0.73
273.095	0.75
273.466	0.76
273.837	0.81
274.208	0.82
274.578	0.8
274.949	0.8
275.32	0.79
275.69	0.75
276.061	0.72
276.431	0.75
276.802	0.69
277.172	0.74
277.542	0.74
277.913	0.74
278.283	0.74
278.653	0.7
279.023	0.68
279.394	0.69
279.764	0.68
280.134	0.62
280.504	0.66
280.874	0.69
281.244	0.64
281.614	0.6
281.983	0.59
282.353	0.57
282.723	0.59
283.093	0.57
283.462	0.55
283.832	0.54
284.202	0.61
284.571	0.65
284.941	0.65
285.31	0.7
285.68	0.71
286.049	0.74
286.418	0.71
286.788	0.74
287.157	0.73
287.526	0.75
287.895	0.71
288.264	0.73
288.633	0.67
289.002	0.68
289.371	0.68
289.74	0.64
290.109	0.68
290.478	0.75
290.847	0.76
291.216	0.81
291.585	0.76
291.953	0.73
292.322	0.72
292.691	0.73
293.059	0.74
293.428	0.66
293.796	0.65
294.165	0.64
294.533	0.61
294.901	0.59
295.27	0.6
295.638	0.55
296.006	0.46
296.374	0.45
296.743	0.44
297.111	0.45
297.479	0.41
297.847	0.38
298.215	0.33
298.583	0.36
298.95	0.38
299.318	0.34
299.686	0.29
300.054	0.27
300.422	0.2
300.789	0.23
301.157	0.21
301.525	0.24
301.892	0.25
302.26	0.27
302.627	0.31
302.994	0.29
303.362	0.3
303.729	0.22
304.097	0.22
304.464	0.2
304.831	0.23
305.198	0.25
305.565	0.3
305.932	0.27
306.299	0.31
306.666	0.37
307.033	0.4
307.4	0.44
307.767	0.39
308.134	0.4
308.501	0.38
308.867	0.37
309.234	0.34
309.601	0.36
309.967	0.38
310.334	0.42
310.701	0.34
311.067	0.33
311.433	0.3
311.8	0.32
312.166	0.33
312.533	0.43
312.899	0.53
313.265	0.58
313.631	0.61
313.997	0.65
314.363	0.58
314.729	0.53
315.096	0.53
315.461	0.53
315.827	0.47
316.193	0.53
316.559	0.55
316.925	0.61
317.291	0.6
317.656	0.61
318.022	0.66
318.388	0.69
318.753	0.69
319.119	0.6
319.484	0.59
319.85	0.61
320.215	0.58
320.581	0.56
320.946	0.49
321.311	0.48
321.676	0.33
322.042	0.28
322.407	0.24
322.772	0.26
323.137	0.27
323.502	0.33
323.867	0.36
324.232	0.43
324.597	0.42
324.962	0.49
325.327	0.43
325.691	0.38
326.056	0.43
326.421	0.45
326.785	0.42
327.15	0.38
327.514	0.41
327.879	0.43
328.243	0.47
328.608	0.46
328.972	0.54
329.337	0.57
329.701	0.62
330.065	0.7
330.429	0.68
330.794	0.72
331.158	0.7
331.522	0.66
331.886	0.67
332.25	0.55
332.614	0.59
332.978	0.62
333.342	0.58
333.705	0.57
334.069	0.47
334.433	0.49
334.797	0.48
335.16	0.39
335.524	0.3
335.887	0.33
336.251	0.34
336.614	0.35
336.978	0.31
337.341	0.34
337.705	0.37
338.068	0.39
338.431	0.38
338.794	0.32
339.158	0.25
339.521	0.25
339.884	0.27
340.247	0.23
340.61	0.27
340.973	0.25
341.336	0.37
341.699	0.38
342.062	0.3
342.424	0.28
342.787	0.25
343.15	0.29
343.512	0.27
343.875	0.26
344.238	0.23
344.6	0.3
344.963	0.36
345.325	0.34
345.688	0.26
346.05	0.32
346.412	0.25
346.775	0.26
347.137	0.14
347.499	0.14
347.861	0.15
348.223	0.17
348.585	0.17
348.947	0.24
349.309	0.25
349.671	0.26
350.033	0.23
350.395	0.12
350.757	0.05
351.118	0.09
351.48	0.07
351.842	0.11
352.203	0.06
352.565	0.05
352.927	0.12
353.288	0.19
353.65	0.12
354.011	0.03
354.372	0.06
354.734	0.07
355.095	0.04
355.456	0.03
355.817	-0.04
356.179	-0.01
356.54	0.03
356.901	0.05
357.262	0.01
357.623	-0.05
357.984	-0.09
358.345	-0.03
358.705	-0.01
359.066	-0.01
359.427	0.06
359.788	0.1
360.148	0.11
360.509	0.09
360.87	0.07
361.23	0.15
361.591	0.26
361.951	0.29
362.312	0.3
362.672	0.38
363.032	0.39
363.393	0.41
363.753	0.46
364.113	0.41
364.473	0.47
364.833	0.55
365.193	0.53
365.553	0.59
365.913	0.5
366.273	0.56
366.633	0.65
366.993	0.62
367.353	0.56
367.713	0.53
368.072	0.53
368.432	0.47
368.792	0.52
369.151	0.5
369.511	0.48
369.87	0.49
370.23	0.49
370.589	0.39
370.949	0.31
371.308	0.3
371.667	0.27
372.027	0.29
372.386	0.26
372.745	0.18
373.104	0.24
373.463	0.2
373.822	0.17
374.181	0.19
374.54	0.06
374.899	0.15
375.258	0.05
375.617	0.01
375.975	0.06
376.334	0.12
376.693	0.11
377.052	0.11
377.41	0.13
377.769	0.04
378.127	0.03
378.486	0.1
378.844	0.15
379.202	0.14
379.561	0.18
379.919	0.18
380.277	0.15
380.636	0.24
380.994	0.23
381.352	0.19
381.71	0.26
382.068	0.33
382.426	0.37
382.784	0.4
383.142	0.46
383.5	0.54
383.857	0.57
384.215	0.71
384.573	0.65
384.931	0.6
385.288	0.59
385.646	0.56
386.003	0.61
386.361	0.64
386.718	0.77
387.076	0.8
387.433	0.87
387.791	0.81
388.148	0.88
388.505	0.97
388.862	1.02
389.22	1.15
389.577	1.18
389.934	1.28
390.291	1.4
390.648	1.45
391.005	1.5
391.362	1.56
391.718	1.56
392.075	1.57
392.432	1.64
392.789	1.7
393.145	1.81
393.502	1.96
393.859	2.14
394.215	2.35
394.572	2.57
394.928	2.72
395.285	2.89
395.641	3.02
395.997	3.13
396.354	3.29
396.71	3.52
397.066	3.6
397.422	3.72
397.778	3.9
398.134	4.06
398.491	4.18
398.846	4.4
399.202	4.61
399.558	4.85
399.914	5.03
400.27	5.3
400.626	5.54
400.981	5.79
401.337	6.07
401.693	6.37
402.048	6.64
402.404	7.07
402.759	7.36
403.115	7.58
403.47	7.96
403.826	8.31
404.181	8.73
404.536	8.99
404.892	9.41
405.247	9.78
405.602	10.16
405.957	10.62
406.312	11.04
406.667	11.51
407.022	11.98
407.377	12.48
407.732	12.93
408.087	13.37
408.442	13.76
408.796	14.17
409.151	14.59
409.506	15.21
409.86	15.75
410.215	16.3
410.57	16.88
410.924	17.48
411.279	17.92
411.633	18.52
411.987	19.13
412.342	19.63
412.696	20.13
413.05	20.74
413.404	21.38
413.758	22.07
414.113	22.61
414.467	23.25
414.821	23.84
415.175	24.5
415.529	25.08
415.882	25.7
416.236	26.3
416.59	26.84
416.944	27.38
417.298	28.08
417.651	28.73
418.005	29.27
418.358	29.79
418.712	30.4
419.065	30.95
419.419	31.43
419.772	31.87
420.126	32.47
420.479	32.91
420.832	33.43
421.185	33.83
421.539	34.33
421.892	34.74
422.245	35.12
422.598	35.57
422.951	36.14
423.304	36.62
423.657	37.02
424.01	37.55
424.363	37.91
424.715	38.44
425.068	38.85
425.421	39.32
425.773	39.78
426.126	40.39
426.479	40.75
426.831	41.22
427.184	41.56
427.536	41.91
427.889	42.18
428.241	42.53
428.593	42.88
428.945	43.26
429.298	43.57
429.65	43.87
430.002	44.34
430.354	44.79
430.706	45.13
431.058	45.58
431.41	45.83
431.762	46
432.114	46.25
432.466	46.58
432.817	46.73
433.169	47.16
433.521	47.37
433.872	47.61
434.224	47.8
434.576	48.1
434.927	48.15
435.279	48.41
435.63	48.63
435.981	48.88
436.333	49.15
436.684	49.52
437.035	49.65
437.387	49.78
437.738	49.78
438.089	49.89
438.44	50.02
438.791	50.09
439.142	50.21
439.493	50.4
439.844	50.39
440.195	50.57
440.545	50.77
440.896	50.83
441.247	50.99
441.598	51.23
441.948	51.31
442.299	51.37
442.649	51.56
443	51.65
443.35	51.76
443.701	51.92
444.051	51.99
444.401	51.97
444.752	52.07
445.102	52.06
445.452	52.02
445.802	52.22
446.152	52.31
446.502	52.54
446.852	52.68
447.202	52.77
447.552	52.83
447.902	52.74
448.252	52.73
448.602	54.31
448.952	54.34
449.301	54.31
449.651	54.4
450.001	54.36
450.35	54.27
450.7	54.28
451.049	54.22
451.399	54.28
451.748	54.35
452.097	54.2
452.447	54.26
452.796	54.16
453.145	54.38
453.494	54.42
453.843	54.36
454.193	54.33
454.542	54.14
454.891	54.24
455.239	54.12
455.588	54.24
455.937	54.41
456.286	54.49
456.635	54.71
456.984	54.58
457.332	52.92
457.681	52.81
458.03	52.79
458.378	52.68
458.727	52.77
459.075	52.8
459.423	52.82
459.772	52.86
460.12	52.74
460.468	52.77
460.817	53.03
461.165	52.86
461.513	52.97
461.861	52.91
462.209	52.75
462.557	52.53
462.905	52.5
463.253	52.44
463.601	52.11
463.949	52.13
464.297	52.05
464.644	51.71
464.992	51.7
465.34	51.53
465.687	51.6
466.035	51.48
466.383	51.36
466.73	51.23
467.078	51.28
467.425	51.02
467.772	50.95
468.12	50.76
468.467	50.65
468.814	50.7
469.161	50.49
469.508	50.31
469.856	50.22
470.203	50.03
470.55	49.74
470.897	49.74
471.243	49.77
471.59	49.6
471.937	49.54
472.284	49.69
472.631	49.62
472.977	49.52
473.324	49.46
473.671	49.35
474.017	49.2
474.364	49
474.71	48.82
475.057	48.86
475.403	48.68
475.749	48.51
476.096	48.43
476.442	48.2
476.788	48.09
477.134	48.05
477.48	47.77
477.826	47.67
478.172	47.49
478.518	47.28
478.864	47.19
479.21	47.08
479.556	47.02
479.902	46.88
480.248	46.65
480.593	46.56
480.939	46.37
481.285	46.2
481.63	45.98
481.976	45.84
482.321	45.53
482.667	45.35
483.012	45.24
483.357	45.16
483.703	44.95
484.048	44.97
484.393	44.78
484.738	44.8
485.084	44.69
485.429	44.56
485.774	44.39
486.119	44.29
486.464	44.2
486.808	43.99
487.153	43.89
487.498	43.71
487.843	43.56
488.188	43.26
488.532	43.04
488.877	42.94
489.222	42.72
489.566	42.57
489.911	42.4
490.255	42.3
490.6	42.09
490.944	42.01
491.288	41.87
491.633	41.65
491.977	41.42
492.321	41.37
492.665	41.13
493.009	41.08
493.353	40.86
493.697	40.81
494.041	40.66
494.385	40.59
494.729	40.4
495.073	40.25
495.417	40.21
495.76	40.02
496.104	39.91
496.448	39.8
496.791	39.69
497.135	39.6
497.479	39.5
497.822	39.5
498.165	39.36
498.509	39.31
498.852	39.17
499.196	39.06
499.539	38.86
499.882	38.77
500.225	38.68
500.568	38.64
500.911	38.43
501.254	38.34
501.597	38.14
501.94	37.99
502.283	37.72
502.626	37.62
502.969	37.47
503.312	37.29
503.654	37.19
503.997	37.02
504.34	36.9
504.682	36.78
505.025	36.61
505.367	36.46
505.71	36.39
506.052	36.23
506.395	36.01
506.737	35.89
507.079	35.66
507.421	35.5
507.764	35.38
508.106	35.21
508.448	35.08
508.79	34.94
509.132	34.74
509.474	34.62
509.816	34.49
510.158	34.37
510.499	34.19
510.841	34.18
511.183	34.06
511.525	33.97
511.866	33.95
512.208	33.81
512.549	33.62
512.891	33.56
513.232	33.49
513.574	33.39
513.915	33.34
514.256	33.09
514.598	33.06
514.939	33.14
515.28	33.01
515.621	32.89
515.962	32.73
516.303	32.75
516.644	32.73
516.985	32.65
517.326	32.66
517.667	32.65
518.008	32.62
518.349	32.46
518.69	32.39
519.03	32.28
519.371	32.11
519.712	31.97
520.052	31.96
520.393	31.95
520.733	31.75
521.074	31.8
521.414	31.69
521.754	31.45
522.095	31.4
522.435	31.32
522.775	31.37
523.115	31.22
523.455	30.86
523.795	30.75
524.135	30.65
524.475	30.56
524.815	30.41
525.155	30.33
525.495	30.22
525.835	29.99
526.175	29.78
526.514	29.65
526.854	29.66
527.194	29.62
527.533	29.69
527.873	29.54
528.212	29.42
528.552	29.24
528.891	29.11
529.23	29.11
529.57	28.98
529.909	28.99
530.248	28.98
530.587	28.89
530.927	28.76
531.266	28.63
531.605	28.53
531.944	28.53
532.283	28.51
532.621	28.49
532.96	28.49
533.299	28.47
533.638	28.48
533.977	28.34
534.315	28.33
534.654	28.33
534.992	28.24
535.331	28.09
535.67	27.91
536.008	27.67
536.346	27.64
536.685	27.56
537.023	27.3
537.361	27.03
537.7	26.98
538.038	26.76
538.376	26.52
538.714	26.58
539.052	26.44
539.39	26.41
539.728	26.53
540.066	26.5
540.404	26.4
540.741	26.25
541.079	26.08
541.417	25.99
541.755	25.65
542.092	25.57
542.43	25.62
542.767	25.53
543.105	25.47
543.442	25.38
543.78	25.29
544.117	25.29
544.454	25.31
544.792	25.25
545.129	25.25
545.466	25.18
545.803	25.23
546.14	25.08
546.477	25.11
546.814	25.08
547.151	24.9
547.488	25.03
547.825	24.82
548.162	24.63
548.499	24.53
548.835	24.47
549.172	24.45
549.509	24.58
549.845	24.66
550.182	24.86
550.518	24.83
550.855	24.74
551.191	24.64
551.528	24.69
551.864	24.54
552.2	24.57
552.537	24.58
552.873	24.62
553.209	24.7
553.545	24.73
553.881	24.83
554.217	24.77
554.553	24.86
554.889	24.86
555.225	25.02
555.561	25.05
555.896	25.06
556.232	25.25
556.568	25.14
556.903	25.22
557.239	25.26
557.575	25.3
557.91	25.3
558.245	25.21
558.581	25.21
558.916	25.27
559.252	25.42
559.587	25.46
559.922	25.56
560.257	25.65
560.592	25.62
560.928	25.63
561.263	25.66
561.598	25.69
561.933	25.57
562.267	25.94
562.602	26.09
562.937	26.14
563.272	26.27
563.607	26.29
563.941	26.36
564.276	26.28
564.611	26.22
564.945	26.31
565.28	26.33
565.614	26.37
565.949	26.47
566.283	26.42
566.617	26.46
566.951	26.43
567.286	26.41
567.62	26.33
567.954	26.53
568.288	26.5
568.622	26.58
568.956	26.6
569.29	26.65
569.624	26.61
569.958	26.7
570.292	26.8
570.626	26.76
570.959	26.77
571.293	26.81
571.627	26.83
571.96	26.84
572.294	26.83
572.627	26.9
572.961	26.97
573.294	27.08
573.627	27.22
573.961	27.27
574.294	27.33
574.627	27.43
574.961	27.54
575.294	27.63
575.627	27.6
575.96	27.68
576.293	27.6
576.626	27.61
576.959	27.64
577.292	27.72
577.624	27.77
577.957	27.87
578.29	27.87
578.623	27.99
578.955	27.9
579.288	27.89
579.62	27.93
579.953	27.96
580.285	28.03
580.618	28.11
580.95	28.14
581.282	28.23
581.615	28.27
581.947	28.21
582.279	28.24
582.611	28.22
582.943	28.28
583.275	28.26
583.607	28.29
583.939	28.45
584.271	28.52
584.603	28.69
584.935	28.76
585.267	28.84
585.598	29
585.93	29.15
586.262	29.19
586.593	29.34
586.925	29.33
587.256	29.6
587.588	29.79
587.919	29.96
588.25	30.11
588.582	30.1
588.913	30.22
589.244	30.35
589.575	30.56
589.907	30.65
590.238	30.89
590.569	31.09
590.9	31.3
591.231	31.43
591.562	31.52
591.892	31.67
592.223	31.86
592.554	32.02
592.885	32.05
593.215	32.2
593.546	32.29
593.877	32.32
594.207	32.35
594.538	32.55
594.868	32.71
595.198	32.91
595.529	32.99
595.859	33.1
596.189	33.08
596.52	33.21
596.85	33.45
597.18	33.74
597.51	33.91
597.84	33.93
598.17	34.06
598.5	34.28
598.83	34.4
599.16	34.62
599.489	34.69
599.819	34.87
600.149	35.06
600.479	35.1
600.808	35.29
601.138	35.52
601.467	35.71
601.797	35.97
602.126	36.21
602.456	36.49
602.785	36.68
603.114	36.93
603.443	37.15
603.773	37.48
604.102	37.77
604.431	38.06
604.76	38.34
605.089	38.5
605.418	38.64
605.747	38.73
606.076	38.95
606.405	39.07
606.733	39.3
607.062	39.62
607.391	39.75
607.72	39.99
608.048	40.3
608.377	40.58
608.705	40.96
609.034	41.25
609.362	41.67
609.69	42.06
610.019	42.47
610.347	42.83
610.675	43.01
611.004	43.21
611.332	43.45
611.66	43.8
611.988	43.8
612.316	44.05
612.644	44.47
612.972	44.68
613.3	45.03
613.627	45.14
613.955	45.46
614.283	45.78
614.611	46.14
614.938	46.32
615.266	46.66
615.593	46.93
615.921	47.25
616.248	47.47
616.576	47.77
616.903	48.32
617.23	48.78
617.558	49.39
617.885	49.76
618.212	50.05
618.539	50.31
618.866	50.38
619.193	50.6
619.52	50.75
619.847	50.8
620.174	51.25
620.501	51.45
620.828	51.71
621.155	51.8
621.481	52.34
621.808	52.74
622.135	53.19
622.461	53.34
622.788	53.74
623.114	53.76
623.441	53.93
623.767	54.35
624.093	54.7
624.42	55.34
624.746	55.97
625.072	56.06
625.398	56.58
625.725	56.69
626.051	56.93
626.377	57.02
626.703	57.44
627.029	58.44
627.354	58.89
627.68	59.52
628.006	60.22
628.332	60.4
628.658	60.92
628.983	61.12
629.309	61.8
629.634	61.88
629.96	61.7
630.285	62.21
630.611	62.55
630.936	63
631.262	63.53
631.587	63.77
631.912	64.28
632.237	65.32
632.562	65.72
632.887	65.74
633.213	66.17
633.538	66.27
633.863	65.65
634.187	66.31
634.512	66.88
634.837	66.66
635.162	66.54
635.487	66.46
635.811	66.41
636.136	66.71
636.461	67.16
636.785	67.19
637.11	67.73
637.434	67.91
637.758	67.69
638.083	67.99
638.407	68.23
638.731	68.72
639.056	68.55
639.38	68.75
639.704	68.45
640.028	68.54
640.352	68.31
640.676	68.19
641	67.95
641.324	67.61
641.648	67.53
641.972	68
642.295	67.63
642.619	67.54
642.943	67.76
643.266	67.57
643.59	68.11
643.913	68.59
644.237	68.47
644.56	68.13
644.884	68.16
645.207	67.54
645.53	67.27
645.854	67.85
646.177	68.34
646.5	68.64
646.823	68.68
647.146	69.04
647.469	68.81
647.792	68.88
648.115	68.98
648.438	68.99
648.761	69.86
649.084	70.54
649.406	70.52
649.729	69.05
650.052	68.49
650.374	68.41
650.697	68.01
651.019	67.97
651.342	67.9
651.664	67.94
651.987	67.71
652.309	67.75
652.631	68.08
652.953	68.16
653.276	68.13
653.598	68.01
653.92	68
654.242	68.16
654.564	67.98
654.886	67.89
655.208	67.77
655.53	67.76
655.851	67.74
656.173	67.88
656.495	67.99
656.816	67.47
657.138	66.99
657.46	66.6
657.781	67.79
658.103	69.36
658.424	70.16
