Data from T1_Reflection__79__23-22-11-148.txt Node

Date: Wed Jun 02 23:22:11 CEST 2021
User: mabdelazizm
Spectrometer: FLMS18565
Trigger mode: 0
Integration Time (sec): 2.000000E0
Scans to average: 1
Electric dark correction enabled: true
Nonlinearity correction enabled: false
Boxcar width: 12
XAxis mode: Wavelengths
Number of Pixels in Spectrum: 2048
>>>>>Begin Spectral Data<<<<<
179.071	-239.75
179.452	-448.22
179.833	-276.55
180.214	-320
180.595	-3074.77
180.977	-1185.37
181.358	-705.52
181.739	-1501.96
182.12	-607.95
182.501	-628.02
182.882	-307.86
183.262	-438.1
183.643	-192.47
184.024	-78.53
184.405	-30.1
184.786	-4.58
185.166	-6.25
185.547	-4.71
185.927	-15.41
186.308	-10.75
186.689	-10.06
187.069	-10.28
187.449	-15.66
187.83	-16.26
188.21	-14.3
188.59	-14.12
188.971	-9.3
189.351	-8.29
189.731	-0.67
190.111	-0.1
190.491	1.89
190.871	0.08
191.251	0.29
191.631	0.73
192.011	1.28
192.391	1.4
192.771	3.56
193.151	2.95
193.531	3.49
193.91	3.42
194.29	3.04
194.67	2.7
195.049	3.4
195.429	5.34
195.808	5.47
196.188	5.2
196.567	4.42
196.946	5.8
197.326	6.18
197.705	5.49
198.084	5.95
198.464	5.72
198.843	5.37
199.222	1.91
199.601	3.34
199.98	1.6
200.359	2.94
200.738	3.35
201.117	3.96
201.496	3.86
201.875	3.42
202.254	3.3
202.632	3.98
203.011	3.76
203.39	2.19
203.768	3.06
204.147	3.91
204.525	3.78
204.904	3.37
205.282	3.08
205.661	2.49
206.039	4.03
206.418	3.63
206.796	3.57
207.174	3.67
207.552	3.99
207.931	2.95
208.309	3.65
208.687	4.85
209.065	4.65
209.443	4.39
209.821	3.49
210.199	3.41
210.577	1.97
210.954	1.36
211.332	1.79
211.71	1.52
212.088	0.8
212.465	1.52
212.843	2.03
213.221	1.68
213.598	2.34
213.976	1.17
214.353	1.46
214.731	1.74
215.108	1.44
215.485	0.45
215.863	0.56
216.24	0.44
216.617	0.64
216.994	0.6
217.371	0.48
217.749	0.01
218.126	0.12
218.503	-0.04
218.88	0.23
219.256	0.7
219.633	0.84
220.01	1.89
220.387	2.65
220.764	2.11
221.14	2.02
221.517	2.19
221.894	1.48
222.27	2.13
222.647	1.98
223.023	1.12
223.4	1.88
223.776	2.06
224.153	1.93
224.529	2.23
224.905	3.04
225.282	3.33
225.658	3.17
226.034	2.94
226.41	3.09
226.786	3.35
227.162	3.33
227.538	3.42
227.914	3.41
228.29	3.21
228.666	3.15
229.042	2.93
229.418	2.78
229.793	2.68
230.169	2.8
230.545	2.68
230.92	2.9
231.296	2.9
231.672	2.7
232.047	2.61
232.422	2.66
232.798	2.48
233.173	2.38
233.549	2.36
233.924	2.27
234.299	1.86
234.674	1.82
235.05	1.76
235.425	1.81
235.8	1.68
236.175	1.61
236.55	1.64
236.925	1.59
237.3	1.59
237.675	1.52
238.049	1.53
238.424	1.56
238.799	1.58
239.174	1.52
239.548	1.44
239.923	1.42
240.297	1.3
240.672	1.24
241.046	1.24
241.421	1.3
241.795	1.29
242.17	1.4
242.544	1.33
242.918	1.4
243.293	1.41
243.667	1.48
244.041	1.4
244.415	1.41
244.789	1.39
245.163	1.41
245.537	1.46
245.911	1.4
246.285	1.39
246.659	1.38
247.033	1.46
247.406	1.5
247.78	1.47
248.154	1.39
248.528	1.36
248.901	1.38
249.275	1.46
249.648	1.47
250.022	1.5
250.395	1.51
250.769	1.45
251.142	1.47
251.515	1.31
251.888	1.3
252.262	1.23
252.635	1.22
253.008	1.22
253.381	1.2
253.754	1.21
254.127	1.26
254.5	1.27
254.873	1.14
255.246	1.17
255.619	1.15
255.992	1.11
256.364	1.13
256.737	1.11
257.11	1.18
257.483	1.17
257.855	1.19
258.228	1.2
258.6	1.19
258.973	1.18
259.345	1.22
259.718	1.18
260.09	1.17
260.462	1.11
260.834	1.17
261.207	1.22
261.579	1.24
261.951	1.21
262.323	1.14
262.695	1.11
263.067	1.14
263.439	1.09
263.811	1.06
264.183	1.08
264.555	1.01
264.927	0.99
265.298	0.97
265.67	0.91
266.042	0.89
266.413	0.87
266.785	0.82
267.156	0.79
267.528	0.74
267.899	0.67
268.271	0.68
268.642	0.61
269.013	0.62
269.385	0.66
269.756	0.72
270.127	0.7
270.498	0.64
270.87	0.61
271.241	0.56
271.612	0.61
271.983	0.65
272.354	0.64
272.724	0.67
273.095	0.69
273.466	0.73
273.837	0.77
274.208	0.74
274.578	0.71
274.949	0.76
275.32	0.75
275.69	0.68
276.061	0.71
276.431	0.72
276.802	0.66
277.172	0.68
277.542	0.65
277.913	0.7
278.283	0.67
278.653	0.6
279.023	0.58
279.394	0.59
279.764	0.57
280.134	0.58
280.504	0.65
280.874	0.61
281.244	0.57
281.614	0.52
281.983	0.54
282.353	0.54
282.723	0.53
283.093	0.53
283.462	0.56
283.832	0.59
284.202	0.54
284.571	0.52
284.941	0.48
285.31	0.51
285.68	0.53
286.049	0.56
286.418	0.54
286.788	0.62
287.157	0.6
287.526	0.61
287.895	0.64
288.264	0.65
288.633	0.6
289.002	0.67
289.371	0.68
289.74	0.58
290.109	0.58
290.478	0.57
290.847	0.59
291.216	0.53
291.585	0.46
291.953	0.44
292.322	0.45
292.691	0.44
293.059	0.42
293.428	0.4
293.796	0.4
294.165	0.46
294.533	0.43
294.901	0.47
295.27	0.51
295.638	0.48
296.006	0.37
296.374	0.37
296.743	0.33
297.111	0.34
297.479	0.31
297.847	0.32
298.215	0.24
298.583	0.22
298.95	0.27
299.318	0.28
299.686	0.29
300.054	0.32
300.422	0.33
300.789	0.39
301.157	0.37
301.525	0.35
301.892	0.39
302.26	0.42
302.627	0.46
302.994	0.43
303.362	0.36
303.729	0.34
304.097	0.3
304.464	0.26
304.831	0.31
305.198	0.3
305.565	0.28
305.932	0.31
306.299	0.33
306.666	0.35
307.033	0.39
307.4	0.43
307.767	0.42
308.134	0.45
308.501	0.42
308.867	0.39
309.234	0.34
309.601	0.34
309.967	0.35
310.334	0.38
310.701	0.31
311.067	0.26
311.433	0.27
311.8	0.27
312.166	0.31
312.533	0.41
312.899	0.42
313.265	0.4
313.631	0.39
313.997	0.37
314.363	0.31
314.729	0.36
315.096	0.28
315.461	0.23
315.827	0.18
316.193	0.19
316.559	0.19
316.925	0.22
317.291	0.17
317.656	0.2
318.022	0.27
318.388	0.29
318.753	0.24
319.119	0.18
319.484	0.19
319.85	0.22
320.215	0.19
320.581	0.13
320.946	0.11
321.311	0.09
321.676	0.02
322.042	0
322.407	0.04
322.772	0.08
323.137	0.09
323.502	0.12
323.867	0.14
324.232	0.16
324.597	0.12
324.962	0.18
325.327	0.16
325.691	0.19
326.056	0.15
326.421	0.13
326.785	0.16
327.15	0.13
327.514	0.16
327.879	0.15
328.243	0.17
328.608	0.16
328.972	0.25
329.337	0.35
329.701	0.43
330.065	0.45
330.429	0.36
330.794	0.36
331.158	0.36
331.522	0.37
331.886	0.37
332.25	0.3
332.614	0.32
332.978	0.22
333.342	0.27
333.705	0.25
334.069	0.18
334.433	0.24
334.797	0.23
335.16	0.24
335.524	0.25
335.887	0.23
336.251	0.19
336.614	0.15
336.978	0.17
337.341	0.2
337.705	0.19
338.068	0.18
338.431	0.09
338.794	0.04
339.158	-0.01
339.521	0.12
339.884	0.12
340.247	0.15
340.61	0.09
340.973	0.14
341.336	0.21
341.699	0.24
342.062	0.29
342.424	0.29
342.787	0.34
343.15	0.37
343.512	0.26
343.875	0.2
344.238	0.17
344.6	0.22
344.963	0.19
345.325	0.16
345.688	0.11
346.05	0.11
346.412	0
346.775	0.02
347.137	-0.07
347.499	-0.03
347.861	-0.01
348.223	-0
348.585	-0.09
348.947	-0.08
349.309	-0.1
349.671	-0.11
350.033	-0.2
350.395	-0.24
350.757	-0.31
351.118	-0.32
351.48	-0.3
351.842	-0.25
352.203	-0.25
352.565	-0.24
352.927	-0.16
353.288	-0.13
353.65	-0.19
354.011	-0.19
354.372	-0.16
354.734	-0.1
355.095	-0.1
355.456	-0.04
355.817	-0.11
356.179	-0.09
356.54	-0.07
356.901	-0.12
357.262	-0.11
357.623	-0.12
357.984	-0.11
358.345	-0.11
358.705	-0.11
359.066	-0.05
359.427	-0.04
359.788	0
360.148	-0.02
360.509	-0.09
360.87	-0.12
361.23	-0.09
361.591	0.01
361.951	-0.02
362.312	-0.03
362.672	-0.05
363.032	-0.03
363.393	0.01
363.753	0.04
364.113	0.01
364.473	0.02
364.833	0.11
365.193	0.1
365.553	0.11
365.913	0.12
366.273	0.14
366.633	0.22
366.993	0.21
367.353	0.18
367.713	0.21
368.072	0.18
368.432	0.15
368.792	0.23
369.151	0.23
369.511	0.27
369.87	0.27
370.23	0.26
370.589	0.19
370.949	0.16
371.308	0.22
371.667	0.26
372.027	0.28
372.386	0.28
372.745	0.2
373.104	0.21
373.463	0.24
373.822	0.19
374.181	0.24
374.54	0.19
374.899	0.13
375.258	0.03
375.617	-0.02
375.975	0.04
376.334	0.03
376.693	0.06
377.052	0.07
377.41	0.12
377.769	0.07
378.127	0.03
378.486	-0.01
378.844	-0.02
379.202	-0.04
379.561	-0.06
379.919	-0.05
380.277	-0.09
380.636	-0.08
380.994	-0.1
381.352	-0.14
381.71	-0.08
382.068	0.01
382.426	0.04
382.784	0.09
383.142	0.1
383.5	0.07
383.857	0.17
384.215	0.25
384.573	0.14
384.931	0.07
385.288	0.12
385.646	0.04
386.003	0
386.361	0.01
386.718	-0.02
387.076	0
387.433	0.08
387.791	0.06
388.148	0.1
388.505	0.12
388.862	0.07
389.22	0.19
389.577	0.25
389.934	0.33
390.291	0.4
390.648	0.39
391.005	0.4
391.362	0.37
391.718	0.35
392.075	0.3
392.432	0.39
392.789	0.39
393.145	0.49
393.502	0.64
393.859	0.75
394.215	0.84
394.572	1
394.928	1.11
395.285	1.16
395.641	1.22
395.997	1.33
396.354	1.4
396.71	1.53
397.066	1.61
397.422	1.75
397.778	1.88
398.134	1.8
398.491	1.91
398.846	1.97
399.202	2.07
399.558	2.2
399.914	2.29
400.27	2.47
400.626	2.6
400.981	2.75
401.337	2.9
401.693	3
402.048	3.14
402.404	3.34
402.759	3.46
403.115	3.61
403.47	3.81
403.826	3.99
404.181	4.19
404.536	4.4
404.892	4.67
405.247	4.9
405.602	5.14
405.957	5.39
406.312	5.64
406.667	5.87
407.022	6.27
407.377	6.54
407.732	6.9
408.087	7.15
408.442	7.51
408.796	7.81
409.151	8.09
409.506	8.5
409.86	8.81
410.215	9.23
410.57	9.69
410.924	10.09
411.279	10.46
411.633	10.96
411.987	11.46
412.342	11.78
412.696	12.2
413.05	12.75
413.404	13.24
413.758	13.82
414.113	14.29
414.467	14.7
414.821	15.22
415.175	15.77
415.529	16.34
415.882	16.81
416.236	17.31
416.59	17.72
416.944	18.17
417.298	18.72
417.651	19.14
418.005	19.59
418.358	20.08
418.712	20.6
419.065	21.07
419.419	21.51
419.772	21.89
420.126	22.42
420.479	22.89
420.832	23.24
421.185	23.64
421.539	24.11
421.892	24.46
422.245	24.89
422.598	25.18
422.951	25.63
423.304	26.03
423.657	26.31
424.01	26.68
424.363	27.11
424.715	27.49
425.068	27.88
425.421	28.4
425.773	28.78
426.126	29.21
426.479	29.64
426.831	29.99
427.184	30.3
427.536	30.58
427.889	30.9
428.241	31.32
428.593	31.66
428.945	31.98
429.298	32.31
429.65	32.72
430.002	33.19
430.354	33.6
430.706	33.82
431.058	34.17
431.41	34.52
431.762	34.77
432.114	35.15
432.466	35.6
432.817	35.82
433.169	36.15
433.521	36.5
433.872	36.76
434.224	36.89
434.576	37.16
434.927	37.26
435.279	37.56
435.63	37.89
435.981	38.09
436.333	38.5
436.684	38.71
437.035	38.76
437.387	39.06
437.738	39.23
438.089	39.32
438.44	39.42
438.791	39.46
439.142	39.47
439.493	39.85
439.844	40
440.195	40.07
440.545	40.29
440.896	40.36
441.247	40.41
441.598	40.62
441.948	40.78
442.299	40.89
442.649	41.05
443	41.18
443.35	41.44
443.701	41.65
444.051	41.79
444.401	41.82
444.752	41.95
445.102	41.94
445.452	41.99
445.802	42.15
446.152	42.21
446.502	42.31
446.852	42.46
447.202	42.43
447.552	42.53
447.902	42.55
448.252	42.49
448.602	43.93
448.952	44.01
449.301	43.98
449.651	44.03
450.001	44.14
450.35	44.14
450.7	44.2
451.049	44.22
451.399	44.33
451.748	44.41
452.097	44.3
452.447	44.35
452.796	44.27
453.145	44.28
453.494	44.19
453.843	44.09
454.193	44.1
454.542	44.15
454.891	44.19
455.239	44.06
455.588	44.07
455.937	44.21
456.286	44.27
456.635	44.4
456.984	44.46
457.332	42.69
457.681	42.58
458.03	42.41
458.378	42.31
458.727	42.31
459.075	42.29
459.423	42.1
459.772	42.05
460.12	41.82
460.468	41.61
460.817	41.51
461.165	41.36
461.513	41.22
461.861	41.28
462.209	41.18
462.557	41.04
462.905	40.96
463.253	40.76
463.601	40.44
463.949	40.43
464.297	40.15
464.644	39.85
464.992	39.69
465.34	39.54
465.687	39.35
466.035	39.25
466.383	39.2
466.73	39.18
467.078	39.03
467.425	38.76
467.772	38.53
468.12	38.39
468.467	38.28
468.814	38.28
469.161	38.17
469.508	38.05
469.856	37.8
470.203	37.63
470.55	37.27
470.897	37.11
471.243	37.07
471.59	36.75
471.937	36.68
472.284	36.58
472.631	36.47
472.977	36.43
473.324	36.4
473.671	36.35
474.017	36.14
474.364	35.87
474.71	35.74
475.057	35.59
475.403	35.36
475.749	35.28
476.096	35.12
476.442	35
476.788	34.8
477.134	34.52
477.48	34.3
477.826	34.23
478.172	34.05
478.518	33.9
478.864	33.77
479.21	33.77
479.556	33.61
479.902	33.41
480.248	33.14
480.593	32.97
480.939	32.82
481.285	32.65
481.63	32.49
481.976	32.24
482.321	31.98
482.667	31.86
483.012	31.76
483.357	31.59
483.703	31.38
484.048	31.45
484.393	31.22
484.738	31.08
485.084	30.93
485.429	30.78
485.774	30.68
486.119	30.53
486.464	30.36
486.808	30.23
487.153	30.06
487.498	29.82
487.843	29.56
488.188	29.34
488.532	29.1
488.877	29.06
489.222	28.87
489.566	28.7
489.911	28.33
490.255	28.09
490.6	28.02
490.944	27.92
491.288	27.68
491.633	27.51
491.977	27.33
492.321	27.18
492.665	26.88
493.009	26.83
493.353	26.69
493.697	26.51
494.041	26.34
494.385	26.18
494.729	26
495.073	25.82
495.417	25.67
495.76	25.49
496.104	25.4
496.448	25.24
496.791	25.14
497.135	25.05
497.479	24.84
497.822	24.71
498.165	24.59
498.509	24.56
498.852	24.39
499.196	24.21
499.539	23.98
499.882	23.88
500.225	23.73
500.568	23.57
500.911	23.45
501.254	23.26
501.597	23.12
501.94	22.99
502.283	22.79
502.626	22.66
502.969	22.55
503.312	22.44
503.654	22.3
503.997	22.15
504.34	22.06
504.682	21.96
505.025	21.78
505.367	21.67
505.71	21.48
506.052	21.42
506.395	21.29
506.737	21.15
507.079	20.97
507.421	20.86
507.764	20.68
508.106	20.49
508.448	20.4
508.79	20.3
509.132	20.2
509.474	20.13
509.816	19.91
510.158	19.67
510.499	19.49
510.841	19.42
511.183	19.31
511.525	19.18
511.866	18.96
512.208	18.81
512.549	18.65
512.891	18.64
513.232	18.51
513.574	18.42
513.915	18.24
514.256	18.1
514.598	18
514.939	17.83
515.28	17.71
515.621	17.61
515.962	17.48
516.303	17.47
516.644	17.44
516.985	17.23
517.326	17.15
517.667	17.06
518.008	16.83
518.349	16.79
518.69	16.72
519.03	16.55
519.371	16.48
519.712	16.43
520.052	16.41
520.393	16.39
520.733	16.27
521.074	16.29
521.414	16.16
521.754	15.96
522.095	15.87
522.435	15.88
522.775	15.98
523.115	15.91
523.455	15.8
523.795	15.7
524.135	15.7
524.475	15.61
524.815	15.47
525.155	15.45
525.495	15.46
525.835	15.37
526.175	15.2
526.514	15.24
526.854	15.25
527.194	15.25
527.533	15.23
527.873	15.19
528.212	15.02
528.552	14.8
528.891	14.71
529.23	14.78
529.57	14.58
529.909	14.43
530.248	14.46
530.587	14.48
530.927	14.39
531.266	14.23
531.605	14.12
531.944	14.1
532.283	14.08
532.621	14
532.96	14.04
533.299	14.08
533.638	14
533.977	13.92
534.315	13.77
534.654	13.84
534.992	13.84
535.331	13.62
535.67	13.46
536.008	13.4
536.346	13.24
536.685	13.18
537.023	13.09
537.361	13.04
537.7	12.84
538.038	12.78
538.376	12.66
538.714	12.69
539.052	12.56
539.39	12.56
539.728	12.54
540.066	12.55
540.404	12.4
540.741	12.29
541.079	12.13
541.417	12
541.755	11.65
542.092	11.59
542.43	11.56
542.767	11.55
543.105	11.4
543.442	11.32
543.78	11.48
544.117	11.58
544.454	11.62
544.792	11.63
545.129	11.75
545.466	11.79
545.803	11.73
546.14	11.66
546.477	11.65
546.814	11.72
547.151	11.49
547.488	11.59
547.825	11.49
548.162	11.46
548.499	11.34
548.835	11.4
549.172	11.37
549.509	11.47
549.845	11.56
550.182	11.84
550.518	11.78
550.855	11.84
551.191	11.83
551.528	12
551.864	11.95
552.2	11.89
552.537	11.83
552.873	11.71
553.209	11.67
553.545	11.59
553.881	11.7
554.217	11.77
554.553	11.89
554.889	11.95
555.225	11.96
555.561	12.07
555.896	11.91
556.232	11.9
556.568	11.81
556.903	11.93
557.239	11.77
557.575	11.81
557.91	11.8
558.245	11.82
558.581	11.79
558.916	11.93
559.252	11.85
559.587	11.81
559.922	11.75
560.257	11.8
560.592	11.9
560.928	11.92
561.263	12.2
561.598	12.29
561.933	12.25
562.267	12.36
562.602	12.32
562.937	12.33
563.272	12.41
563.607	12.57
563.941	12.66
564.276	12.81
564.611	12.78
564.945	12.81
565.28	12.8
565.614	12.98
565.949	13.09
566.283	13.17
566.617	13.24
566.951	13.3
567.286	13.29
567.62	13.3
567.954	13.35
568.288	13.41
568.622	13.45
568.956	13.38
569.29	13.42
569.624	13.27
569.958	13.27
570.292	13.33
570.626	13.36
570.959	13.45
571.293	13.56
571.627	13.61
571.96	13.57
572.294	13.6
572.627	13.67
572.961	13.75
573.294	13.88
573.627	13.98
573.961	14.05
574.294	14.09
574.627	14.18
574.961	14.16
575.294	14.14
575.627	14.19
575.96	14.28
576.293	14.35
576.626	14.4
576.959	14.46
577.292	14.52
577.624	14.61
577.957	14.8
578.29	14.91
578.623	14.94
578.955	14.87
579.288	14.98
579.62	14.99
579.953	15.07
580.285	15.16
580.618	15.2
580.95	15.29
581.282	15.38
581.615	15.43
581.947	15.47
582.279	15.5
582.611	15.53
582.943	15.59
583.275	15.71
583.607	15.83
583.939	15.89
584.271	15.93
584.603	16.07
584.935	16.19
585.267	16.14
585.598	16.27
585.93	16.39
586.262	16.41
586.593	16.56
586.925	16.76
587.256	17
587.588	17.1
587.919	17.23
588.25	17.29
588.582	17.34
588.913	17.49
589.244	17.49
589.575	17.63
589.907	17.73
590.238	17.92
590.569	18.02
590.9	18.2
591.231	18.34
591.562	18.37
591.892	18.47
592.223	18.76
592.554	18.99
592.885	19.05
593.215	19.12
593.546	19.34
593.877	19.37
594.207	19.43
594.538	19.64
594.868	19.75
595.198	19.75
595.529	19.88
595.859	19.98
596.189	20.07
596.52	20.14
596.85	20.3
597.18	20.49
597.51	20.73
597.84	20.82
598.17	20.97
598.5	21.04
598.83	21.34
599.16	21.64
599.489	21.82
599.819	22.06
600.149	22.39
600.479	22.41
600.808	22.63
601.138	22.82
601.467	23.08
601.797	23.26
602.126	23.57
602.456	23.85
602.785	24
603.114	24.32
603.443	24.68
603.773	25
604.102	25.25
604.431	25.58
604.76	25.89
605.089	26.16
605.418	26.26
605.747	26.67
606.076	26.96
606.405	27.08
606.733	27.29
607.062	27.52
607.391	27.44
607.72	27.62
608.048	27.9
608.377	28.03
608.705	28.45
609.034	28.69
609.362	29.11
609.69	29.41
610.019	29.77
610.347	30.08
610.675	30.38
611.004	30.64
611.332	30.81
611.66	31.1
611.988	31.08
612.316	31.14
612.644	31.26
612.972	31.37
613.3	31.54
613.627	31.93
613.955	31.86
614.283	32.22
614.611	32.61
614.938	33.04
615.266	33.28
615.593	33.98
615.921	34.23
616.248	34.37
616.576	34.91
616.903	35.17
617.23	35.67
617.558	36.21
617.885	36.45
618.212	36.75
618.539	37.02
618.866	37.11
619.193	37.51
619.52	37.69
619.847	37.88
620.174	38.16
620.501	38.62
620.828	39
621.155	39.31
621.481	39.42
621.808	39.81
622.135	40.17
622.461	40.28
622.788	40.63
623.114	40.72
623.441	40.94
623.767	40.95
624.093	41.5
624.42	42.07
624.746	42.35
625.072	42.83
625.398	43.18
625.725	43.39
626.051	43.91
626.377	44.41
626.703	44.81
627.029	45.55
627.354	45.79
627.68	46.33
628.006	46.98
628.332	47.32
628.658	47.46
628.983	47.86
629.309	48.42
629.634	49.5
629.96	49.56
630.285	50.06
630.611	50.23
630.936	50.66
631.262	51.33
631.587	51.78
631.912	52.3
632.237	52.49
632.562	53.05
632.887	53.42
633.213	53.25
633.538	53.15
633.863	52.79
634.187	52.92
634.512	53.55
634.837	53.79
635.162	53.51
635.487	53.29
635.811	53.53
636.136	53.64
636.461	54.58
636.785	54.84
637.11	54.81
637.434	55.22
637.758	54.77
638.083	55.32
638.407	55.34
638.731	56.11
639.056	56.5
639.38	56.16
639.704	56.3
640.028	56.74
640.352	56.57
640.676	56.22
641	56.31
641.324	57.13
641.648	57.64
641.972	58.35
642.295	58.49
642.619	58.72
642.943	58.54
643.266	59.06
643.59	60.11
643.913	59.7
644.237	59.8
644.56	59.47
644.884	59.89
645.207	60.04
645.53	60.41
645.854	60.62
646.177	60.22
646.5	60.66
646.823	60.4
647.146	60.17
647.469	59.86
647.792	59.5
648.115	59.85
648.438	60.69
648.761	62.76
649.084	63.63
649.406	63.44
649.729	62.71
650.052	62.11
650.374	62
650.697	61.64
651.019	61.83
651.342	61.77
651.664	61.64
651.987	61.9
652.309	61.91
652.631	62.16
652.953	62.19
653.276	62.33
653.598	62.24
653.92	62.31
654.242	62.59
654.564	62.6
654.886	62.81
655.208	62.78
655.53	63
655.851	63.19
656.173	63.32
656.495	63.21
656.816	62.46
657.138	61.9
657.46	62
657.781	63.2
658.103	65.24
658.424	66.63
658.746	67.22
659.067	67.15
