Data from T1_Reflection__81__23-23-45-146.txt Node

Date: Wed Jun 02 23:23:45 CEST 2021
User: mabdelazizm
Spectrometer: FLMS18565
Trigger mode: 0
Integration Time (sec): 2.000000E0
Scans to average: 1
Electric dark correction enabled: true
Nonlinearity correction enabled: false
Boxcar width: 12
XAxis mode: Wavelengths
Number of Pixels in Spectrum: 2048
>>>>>Begin Spectral Data<<<<<
179.071	-74.36
179.452	-203.16
179.833	-187.83
180.214	-227.27
180.595	-2472.9
180.977	-876.42
181.358	-372.66
181.739	-850.98
182.12	-298.61
182.501	-262.26
182.882	-56.72
183.262	-116.19
183.643	-35.61
184.024	3.59
184.405	18
184.786	35.94
185.166	30.82
185.547	37.57
185.927	20.93
186.308	25.41
186.689	30.92
187.069	25.58
187.449	22.63
187.83	21.89
188.21	20.41
188.59	18.32
188.971	19.65
189.351	21.28
189.731	25.86
190.111	26.61
190.491	26.51
190.871	22.91
191.251	25.28
191.631	24.01
192.011	22.37
192.391	21.3
192.771	22.2
193.151	21.01
193.531	20.55
193.91	20.45
194.29	18.29
194.67	17.51
195.049	16.4
195.429	16.9
195.808	15.11
196.188	13.44
196.567	13.46
196.946	14.21
197.326	13.6
197.705	12.91
198.084	12.79
198.464	12.14
198.843	12.6
199.222	10.77
199.601	10.8
199.98	9.66
200.359	10.44
200.738	10.21
201.117	10.1
201.496	9.89
201.875	8.2
202.254	7
202.632	6.53
203.011	6.41
203.39	6.95
203.768	6.58
204.147	7.28
204.525	6.92
204.904	7.32
205.282	6.9
205.661	6.2
206.039	6.65
206.418	7.15
206.796	7.41
207.174	7.73
207.552	7.97
207.931	9.18
208.309	8.82
208.687	8.79
209.065	9.5
209.443	8.94
209.821	8.48
210.199	8.04
210.577	6.85
210.954	6.95
211.332	7.54
211.71	8.23
212.088	8.4
212.465	8.3
212.843	7.34
213.221	7.48
213.598	8.58
213.976	8.7
214.353	9.88
214.731	10.19
215.108	10.62
215.485	9.87
215.863	9.15
216.24	8.57
216.617	8.29
216.994	8.49
217.371	7.48
217.749	7.36
218.126	7.34
218.503	5.93
218.88	5.71
219.256	5.92
219.633	5.37
220.01	6.13
220.387	6.46
220.764	6.28
221.14	6.38
221.517	6.92
221.894	6.65
222.27	7.08
222.647	7.23
223.023	6.25
223.4	6.21
223.776	5.6
224.153	5.14
224.529	5.12
224.905	5.87
225.282	6.14
225.658	6.14
226.034	5.69
226.41	5.48
226.786	5.43
227.162	5.14
227.538	5.2
227.914	5.39
228.29	5.26
228.666	4.93
229.042	4.72
229.418	4.65
229.793	4.48
230.169	4.66
230.545	4.39
230.92	4.3
231.296	4.29
231.672	4.06
232.047	3.74
232.422	3.88
232.798	3.66
233.173	3.61
233.549	3.54
233.924	3.34
234.299	2.91
234.674	2.85
235.05	2.78
235.425	2.9
235.8	2.79
236.175	2.64
236.55	2.62
236.925	2.57
237.3	2.57
237.675	2.45
238.049	2.52
238.424	2.62
238.799	2.64
239.174	2.65
239.548	2.52
239.923	2.49
240.297	2.41
240.672	2.43
241.046	2.36
241.421	2.39
241.795	2.33
242.17	2.4
242.544	2.29
242.918	2.26
243.293	2.31
243.667	2.36
244.041	2.29
244.415	2.26
244.789	2.21
245.163	2.29
245.537	2.4
245.911	2.34
246.285	2.35
246.659	2.32
247.033	2.49
247.406	2.47
247.78	2.41
248.154	2.32
248.528	2.26
248.901	2.24
249.275	2.26
249.648	2.23
250.022	2.21
250.395	2.28
250.769	2.3
251.142	2.31
251.515	2.27
251.888	2.33
252.262	2.36
252.635	2.32
253.008	2.35
253.381	2.28
253.754	2.31
254.127	2.35
254.5	2.3
254.873	2.19
255.246	2.23
255.619	2.21
255.992	2.14
256.364	2.1
256.737	2.14
257.11	2.18
257.483	2.18
257.855	2.17
258.228	2.14
258.6	2.12
258.973	2.16
259.345	2.18
259.718	2.12
260.09	2.07
260.462	2.02
260.834	1.99
261.207	1.95
261.579	1.98
261.951	1.97
262.323	1.92
262.695	1.93
263.067	1.95
263.439	1.89
263.811	1.93
264.183	1.95
264.555	1.93
264.927	1.94
265.298	1.96
265.67	1.89
266.042	1.79
266.413	1.76
266.785	1.78
267.156	1.79
267.528	1.78
267.899	1.76
268.271	1.74
268.642	1.7
269.013	1.67
269.385	1.75
269.756	1.75
270.127	1.76
270.498	1.77
270.87	1.73
271.241	1.73
271.612	1.71
271.983	1.75
272.354	1.73
272.724	1.74
273.095	1.72
273.466	1.75
273.837	1.78
274.208	1.75
274.578	1.72
274.949	1.74
275.32	1.81
275.69	1.73
276.061	1.7
276.431	1.67
276.802	1.67
277.172	1.67
277.542	1.64
277.913	1.63
278.283	1.65
278.653	1.58
279.023	1.61
279.394	1.58
279.764	1.59
280.134	1.57
280.504	1.57
280.874	1.6
281.244	1.57
281.614	1.55
281.983	1.59
282.353	1.58
282.723	1.57
283.093	1.61
283.462	1.56
283.832	1.61
284.202	1.63
284.571	1.58
284.941	1.59
285.31	1.6
285.68	1.6
286.049	1.58
286.418	1.53
286.788	1.57
287.157	1.54
287.526	1.54
287.895	1.57
288.264	1.56
288.633	1.54
289.002	1.53
289.371	1.56
289.74	1.56
290.109	1.53
290.478	1.53
290.847	1.57
291.216	1.52
291.585	1.46
291.953	1.42
292.322	1.4
292.691	1.42
293.059	1.36
293.428	1.28
293.796	1.31
294.165	1.33
294.533	1.27
294.901	1.3
295.27	1.33
295.638	1.31
296.006	1.24
296.374	1.28
296.743	1.27
297.111	1.27
297.479	1.26
297.847	1.28
298.215	1.24
298.583	1.22
298.95	1.2
299.318	1.22
299.686	1.2
300.054	1.16
300.422	1.11
300.789	1.18
301.157	1.22
301.525	1.2
301.892	1.25
302.26	1.32
302.627	1.35
302.994	1.31
303.362	1.32
303.729	1.3
304.097	1.25
304.464	1.26
304.831	1.32
305.198	1.31
305.565	1.33
305.932	1.28
306.299	1.27
306.666	1.25
307.033	1.26
307.4	1.33
307.767	1.33
308.134	1.37
308.501	1.34
308.867	1.34
309.234	1.36
309.601	1.42
309.967	1.39
310.334	1.41
310.701	1.29
311.067	1.24
311.433	1.2
311.8	1.27
312.166	1.24
312.533	1.32
312.899	1.34
313.265	1.35
313.631	1.34
313.997	1.26
314.363	1.24
314.729	1.21
315.096	1.21
315.461	1.18
315.827	1.19
316.193	1.19
316.559	1.16
316.925	1.11
317.291	1.04
317.656	1.07
318.022	1.05
318.388	1.04
318.753	1.01
319.119	0.97
319.484	0.93
319.85	1.02
320.215	1
320.581	0.98
320.946	0.88
321.311	0.93
321.676	0.84
322.042	0.82
322.407	0.84
322.772	0.86
323.137	0.99
323.502	1
323.867	1
324.232	1.04
324.597	1.1
324.962	1.17
325.327	1.15
325.691	1.17
326.056	1.24
326.421	1.27
326.785	1.28
327.15	1.31
327.514	1.33
327.879	1.29
328.243	1.29
328.608	1.29
328.972	1.31
329.337	1.35
329.701	1.4
330.065	1.46
330.429	1.42
330.794	1.39
331.158	1.44
331.522	1.44
331.886	1.45
332.25	1.31
332.614	1.29
332.978	1.27
333.342	1.3
333.705	1.25
334.069	1.18
334.433	1.23
334.797	1.17
335.16	1.1
335.524	1.08
335.887	1.03
336.251	1.05
336.614	1.04
336.978	1.03
337.341	1.1
337.705	1.15
338.068	1.22
338.431	1.21
338.794	1.14
339.158	1.13
339.521	1.12
339.884	1.15
340.247	1.1
340.61	1.04
340.973	1
341.336	1.06
341.699	1.09
342.062	1.1
342.424	1.07
342.787	1
343.15	1
343.512	0.93
343.875	0.88
344.238	0.88
344.6	0.97
344.963	1.02
345.325	0.95
345.688	0.92
346.05	0.98
346.412	0.84
346.775	0.79
347.137	0.7
347.499	0.69
347.861	0.74
348.223	0.7
348.585	0.7
348.947	0.71
349.309	0.75
349.671	0.78
350.033	0.76
350.395	0.73
350.757	0.73
351.118	0.75
351.48	0.74
351.842	0.8
352.203	0.79
352.565	0.81
352.927	0.88
353.288	0.95
353.65	0.84
354.011	0.77
354.372	0.8
354.734	0.82
355.095	0.78
355.456	0.85
355.817	0.84
356.179	0.83
356.54	0.82
356.901	0.85
357.262	0.88
357.623	0.86
357.984	0.87
358.345	0.86
358.705	0.88
359.066	0.84
359.427	0.88
359.788	0.89
360.148	0.85
360.509	0.78
360.87	0.79
361.23	0.71
361.591	0.72
361.951	0.73
362.312	0.71
362.672	0.73
363.032	0.79
363.393	0.82
363.753	0.78
364.113	0.79
364.473	0.76
364.833	0.76
365.193	0.74
365.553	0.8
365.913	0.72
366.273	0.73
366.633	0.83
366.993	0.75
367.353	0.76
367.713	0.76
368.072	0.76
368.432	0.69
368.792	0.67
369.151	0.66
369.511	0.71
369.87	0.72
370.23	0.76
370.589	0.79
370.949	0.76
371.308	0.69
371.667	0.68
372.027	0.67
372.386	0.69
372.745	0.68
373.104	0.62
373.463	0.68
373.822	0.68
374.181	0.76
374.54	0.67
374.899	0.62
375.258	0.56
375.617	0.49
375.975	0.6
376.334	0.62
376.693	0.64
377.052	0.65
377.41	0.71
377.769	0.73
378.127	0.76
378.486	0.78
378.844	0.8
379.202	0.8
379.561	0.76
379.919	0.74
380.277	0.81
380.636	0.87
380.994	0.88
381.352	0.81
381.71	0.81
382.068	0.87
382.426	0.86
382.784	0.91
383.142	0.91
383.5	0.96
383.857	1.05
384.215	1.08
384.573	0.98
384.931	0.82
385.288	0.84
385.646	0.76
386.003	0.82
386.361	0.84
386.718	0.82
387.076	0.82
387.433	0.86
387.791	0.81
388.148	0.9
388.505	0.9
388.862	0.9
389.22	1
389.577	0.95
389.934	0.96
390.291	1.02
390.648	1.01
391.005	1.05
391.362	1.04
391.718	1.04
392.075	1
392.432	1.02
392.789	1
393.145	1.12
393.502	1.16
393.859	1.33
394.215	1.42
394.572	1.55
394.928	1.63
395.285	1.69
395.641	1.77
395.997	1.79
396.354	1.82
396.71	1.94
397.066	2
397.422	2.05
397.778	2.24
398.134	2.23
398.491	2.33
398.846	2.45
399.202	2.54
399.558	2.7
399.914	2.74
400.27	2.82
400.626	2.89
400.981	3.03
401.337	3.17
401.693	3.33
402.048	3.44
402.404	3.65
402.759	3.75
403.115	3.79
403.47	3.92
403.826	4.02
404.181	4.14
404.536	4.23
404.892	4.43
405.247	4.55
405.602	4.74
405.957	4.9
406.312	5.13
406.667	5.27
407.022	5.51
407.377	5.72
407.732	5.98
408.087	6.2
408.442	6.33
408.796	6.57
409.151	6.85
409.506	7.17
409.86	7.4
410.215	7.67
410.57	7.93
410.924	8.25
411.279	8.49
411.633	8.86
411.987	9.23
412.342	9.52
412.696	9.83
413.05	10.21
413.404	10.61
413.758	11.13
414.113	11.55
414.467	11.86
414.821	12.22
415.175	12.6
415.529	12.93
415.882	13.18
416.236	13.53
416.59	13.79
416.944	14.21
417.298	14.78
417.651	15.16
418.005	15.54
418.358	15.85
418.712	16.27
419.065	16.72
419.419	17.1
419.772	17.38
420.126	17.9
420.479	18.36
420.832	18.73
421.185	19.08
421.539	19.53
421.892	19.85
422.245	20.32
422.598	20.64
422.951	21.1
423.304	21.56
423.657	21.93
424.01	22.42
424.363	22.92
424.715	23.6
425.068	24.12
425.421	24.71
425.773	25.11
426.126	25.54
426.479	26.07
426.831	26.51
427.184	26.96
427.536	27.28
427.889	27.62
428.241	28.17
428.593	28.68
428.945	29.14
429.298	29.54
429.65	29.97
430.002	30.52
430.354	31.07
430.706	31.62
431.058	32.04
431.41	32.48
431.762	32.79
432.114	33.17
432.466	33.59
432.817	33.9
433.169	34.39
433.521	34.61
433.872	35
434.224	35.2
434.576	35.47
434.927	35.68
435.279	35.94
435.63	36.19
435.981	36.47
436.333	36.85
436.684	37.22
437.035	37.35
437.387	37.52
437.738	37.57
438.089	37.63
438.44	37.87
438.791	37.98
439.142	37.98
439.493	38.19
439.844	38.26
440.195	38.29
440.545	38.37
440.896	38.44
441.247	38.73
441.598	38.98
441.948	39.06
442.299	39.29
442.649	39.43
443	39.66
443.35	39.91
443.701	40.14
444.051	40.32
444.401	40.46
444.752	40.62
445.102	40.82
445.452	40.83
445.802	41.01
446.152	41.22
446.502	41.47
446.852	41.73
447.202	41.87
447.552	42.08
447.902	42.21
448.252	42.21
448.602	43.74
448.952	44.05
449.301	44.36
449.651	44.59
450.001	44.62
450.35	44.74
450.7	44.92
451.049	44.99
451.399	45.15
451.748	45.33
452.097	45.35
452.447	45.54
452.796	45.63
453.145	46.01
453.494	46.21
453.843	46.28
454.193	46.63
454.542	46.84
454.891	47.11
455.239	47.25
455.588	47.45
455.937	47.69
456.286	47.83
456.635	48.1
456.984	48.46
457.332	47.03
457.681	47.1
458.03	47.17
458.378	47.32
458.727	47.49
459.075	47.78
459.423	47.88
459.772	48.17
460.12	48.29
460.468	48.33
460.817	48.67
461.165	48.82
461.513	49.09
461.861	49.25
462.209	49.34
462.557	49.52
462.905	49.58
463.253	49.63
463.601	49.58
463.949	49.64
464.297	49.74
464.644	49.7
464.992	49.81
465.34	49.85
465.687	49.8
466.035	49.92
466.383	49.98
466.73	50.11
467.078	50.15
467.425	50.17
467.772	50.06
468.12	50.03
468.467	49.95
468.814	50.14
469.161	50.29
469.508	50.21
469.856	50.11
470.203	50.01
470.55	49.81
470.897	49.8
471.243	49.98
471.59	49.83
471.937	49.99
472.284	50.03
472.631	50.09
472.977	50.11
473.324	50.22
473.671	50.31
474.017	50.39
474.364	50.36
474.71	50.39
475.057	50.5
475.403	50.49
475.749	50.46
476.096	50.57
476.442	50.62
476.788	50.74
477.134	50.95
477.48	50.87
477.826	50.92
478.172	51.03
478.518	51.19
478.864	51.31
479.21	51.57
479.556	51.84
479.902	51.9
480.248	52.09
480.593	52.21
480.939	52.36
481.285	52.64
481.63	52.73
481.976	52.91
482.321	52.97
482.667	53.14
483.012	53.32
483.357	53.47
483.703	53.64
484.048	53.99
484.393	54.15
484.738	54.48
485.084	54.72
485.429	55.02
485.774	55.18
486.119	55.52
486.464	55.78
486.808	56.12
487.153	56.39
487.498	56.56
487.843	56.73
488.188	56.92
488.532	57.19
488.877	57.55
489.222	57.83
489.566	58.13
489.911	58.23
490.255	58.56
490.6	58.66
490.944	58.96
491.288	59.18
491.633	59.47
491.977	59.76
492.321	60.06
492.665	60.21
493.009	60.63
493.353	60.76
493.697	60.93
494.041	61.11
494.385	61.34
494.729	61.5
495.073	61.66
495.417	61.75
495.76	61.91
496.104	62.16
496.448	62.32
496.791	62.56
497.135	62.66
497.479	62.75
497.822	62.93
498.165	63.02
498.509	63.2
498.852	63.31
499.196	63.6
499.539	63.66
499.882	63.76
500.225	63.86
500.568	63.93
500.911	63.9
501.254	63.95
501.597	63.96
501.94	63.99
502.283	64.1
502.626	64.2
502.969	64.37
503.312	64.44
503.654	64.58
503.997	64.71
504.34	64.73
504.682	64.86
505.025	64.97
505.367	64.99
505.71	65.13
506.052	65.17
506.395	65.14
506.737	65.27
507.079	65.34
507.421	65.35
507.764	65.33
508.106	65.44
508.448	65.58
508.79	65.71
509.132	65.71
509.474	65.88
509.816	65.89
510.158	65.97
510.499	65.95
510.841	66.02
511.183	66.06
511.525	66.11
511.866	65.98
512.208	66.05
512.549	65.98
512.891	66.17
513.232	66.21
513.574	66.27
513.915	66.32
514.256	66.31
514.598	66.42
514.939	66.55
515.28	66.56
515.621	66.6
515.962	66.78
516.303	66.99
516.644	67.07
516.985	66.96
517.326	67.13
517.667	67.33
518.008	67.2
518.349	67.16
518.69	67.16
519.03	67.28
519.371	67.3
519.712	67.44
520.052	67.44
520.393	67.66
520.733	67.62
521.074	67.74
521.414	67.73
521.754	67.67
522.095	67.59
522.435	67.61
522.775	67.65
523.115	67.67
523.455	67.51
523.795	67.65
524.135	67.67
524.475	67.52
524.815	67.47
525.155	67.53
525.495	67.6
525.835	67.38
526.175	67.28
526.514	67.34
526.854	67.51
527.194	67.6
527.533	67.71
527.873	67.66
528.212	67.57
528.552	67.54
528.891	67.49
529.23	67.42
529.57	67.67
529.909	67.66
530.248	67.82
530.587	67.98
530.927	68
531.266	67.91
531.605	67.99
531.944	68.13
532.283	68.02
532.621	68.09
532.96	68.4
533.299	68.43
533.638	68.52
533.977	68.57
534.315	68.61
534.654	68.67
534.992	68.92
535.331	68.83
535.67	68.76
536.008	68.67
536.346	68.8
536.685	68.65
537.023	68.64
537.361	68.82
537.7	69.04
538.038	68.75
538.376	68.58
538.714	68.67
539.052	68.59
539.39	68.48
539.728	68.65
540.066	68.6
540.404	68.47
540.741	68.51
541.079	68.53
541.417	68.34
541.755	68.21
542.092	68.19
542.43	68.1
542.767	68.01
543.105	68.15
543.442	68.02
543.78	68.27
544.117	68.44
544.454	68.36
544.792	68.36
545.129	68.49
545.466	68.39
545.803	68.25
546.14	67.9
546.477	67.84
546.814	67.98
547.151	67.74
547.488	67.81
547.825	67.89
548.162	67.88
548.499	67.96
548.835	67.96
549.172	68.17
549.509	68.23
549.845	68.43
550.182	68.32
550.518	68.17
550.855	68.23
551.191	68.29
551.528	68.25
551.864	68.06
552.2	67.96
552.537	67.71
552.873	67.86
553.209	67.79
553.545	67.83
553.881	68.02
554.217	67.81
554.553	68.2
554.889	68.24
555.225	68.28
555.561	68.41
555.896	68.26
556.232	68.09
556.568	68.14
556.903	68.15
557.239	68.15
557.575	67.95
557.91	67.89
558.245	67.73
558.581	67.87
558.916	68.11
559.252	68.23
559.587	68.15
559.922	67.94
560.257	68.23
560.592	68.17
560.928	68.49
561.263	68.61
561.598	68.62
561.933	68.46
562.267	68.56
562.602	68.79
562.937	68.65
563.272	68.73
563.607	68.66
563.941	68.62
564.276	68.84
564.611	69
564.945	68.94
565.28	68.75
565.614	68.98
565.949	69.08
566.283	69.04
566.617	69.25
566.951	69.21
567.286	69.24
567.62	69.08
567.954	69.24
568.288	69.46
568.622	69.33
568.956	69.29
569.29	69.22
569.624	69.09
569.958	69.11
570.292	69.22
570.626	69.13
570.959	69.19
571.293	69.25
571.627	69.28
571.96	69.39
572.294	69.57
572.627	69.54
572.961	69.54
573.294	69.58
573.627	69.84
573.961	69.83
574.294	69.87
574.627	69.94
574.961	69.79
575.294	69.81
575.627	69.59
575.96	69.72
576.293	69.64
576.626	69.5
576.959	69.53
577.292	69.64
577.624	69.59
577.957	69.69
578.29	69.8
578.623	69.87
578.955	69.83
579.288	69.61
579.62	69.68
579.953	69.66
580.285	69.69
580.618	69.69
580.95	69.76
581.282	69.73
581.615	69.75
581.947	69.65
582.279	69.59
582.611	69.54
582.943	69.49
583.275	69.61
583.607	69.66
583.939	69.88
584.271	69.8
584.603	69.85
584.935	69.95
585.267	69.97
585.598	70.01
585.93	70.11
586.262	70.04
586.593	69.87
586.925	69.67
587.256	69.6
587.588	69.84
587.919	69.8
588.25	69.78
588.582	69.69
588.913	69.61
589.244	69.4
589.575	69.62
589.907	69.56
590.238	69.45
590.569	69.55
590.9	69.56
591.231	69.75
591.562	69.56
591.892	69.56
592.223	69.64
592.554	69.7
592.885	69.66
593.215	69.61
593.546	69.62
593.877	69.43
594.207	69.27
594.538	69.19
594.868	69.21
595.198	69.28
595.529	69.38
595.859	69.47
596.189	69.5
596.52	69.6
596.85	69.57
597.18	69.66
597.51	69.67
597.84	69.48
598.17	69.41
598.5	69.46
598.83	69.39
599.16	69.55
599.489	69.28
599.819	69.4
600.149	69.24
600.479	69.03
600.808	68.94
601.138	68.95
601.467	68.81
601.797	68.77
602.126	68.72
602.456	68.71
602.785	68.9
603.114	68.93
603.443	69.02
603.773	69.12
604.102	69.05
604.431	69.02
604.76	68.86
605.089	68.85
605.418	68.6
605.747	68.67
606.076	68.65
606.405	68.54
606.733	68.57
607.062	68.77
607.391	68.49
607.72	68.47
608.048	68.29
608.377	68.39
608.705	68.44
609.034	68.34
609.362	68.31
609.69	68.34
610.019	68.28
610.347	68.52
610.675	68.54
611.004	68.44
611.332	68.32
611.66	68.23
611.988	67.92
612.316	67.79
612.644	67.69
612.972	67.8
613.3	67.91
613.627	68.02
613.955	67.97
614.283	68.15
614.611	68.37
614.938	68.3
615.266	68.05
615.593	68.15
615.921	68.4
616.248	68.28
616.576	68.24
616.903	68.1
617.23	68.5
617.558	68.76
617.885	68.94
618.212	68.81
618.539	68.7
618.866	68.59
619.193	68.62
619.52	68.57
619.847	68.47
620.174	68.41
620.501	68.41
620.828	68.4
621.155	68.48
621.481	68.42
621.808	68.46
622.135	68.43
622.461	68.31
622.788	68.32
623.114	68.13
623.441	68.06
623.767	68.02
624.093	67.97
624.42	68.26
624.746	68.77
625.072	69.03
625.398	68.87
625.725	68.71
626.051	68.7
626.377	69.2
626.703	69.54
627.029	69.95
627.354	69.85
627.68	70
628.006	70.54
628.332	71.06
628.658	71.21
628.983	71.27
629.309	71.19
629.634	71.39
629.96	71.26
630.285	71.59
630.611	71.12
630.936	70.85
631.262	71.72
631.587	72.02
631.912	72.05
632.237	72.26
632.562	72.18
632.887	71.78
633.213	71.43
633.538	71.65
633.863	71.33
634.187	71.35
634.512	71.64
634.837	70.89
635.162	70.93
635.487	70.67
635.811	70.95
636.136	71
636.461	71.14
636.785	70.94
637.11	70.75
637.434	70.69
637.758	70.09
638.083	69.94
638.407	69.67
638.731	70.47
639.056	70.81
639.38	70.38
639.704	69.82
640.028	70.07
640.352	69.74
640.676	69.93
641	69.43
641.324	69.86
641.648	69.37
641.972	70.23
642.295	70.17
642.619	69.74
642.943	69.99
643.266	69.77
643.59	70.55
643.913	70.34
644.237	70.3
644.56	69.89
644.884	69.95
645.207	69.89
645.53	70.06
645.854	70.12
646.177	70.14
646.5	70.53
646.823	70.37
647.146	70.43
647.469	69.85
647.792	70.12
648.115	70.03
648.438	70.15
648.761	71.07
649.084	71.55
649.406	71.16
649.729	69.55
650.052	68.86
650.374	68.63
650.697	68.33
651.019	68.14
651.342	68.1
651.664	67.83
651.987	67.76
652.309	67.71
652.631	67.79
652.953	67.83
653.276	67.89
653.598	68.02
653.92	68.02
654.242	68.16
654.564	68.01
654.886	68.01
655.208	67.93
655.53	68
655.851	67.93
656.173	67.84
656.495	67.93
656.816	67.32
657.138	66.69
657.46	65.97
657.781	67.29
658.103	68.18
658.424	68.68
658.746	69.12
659.067	69.48
659.388	70
