Data from T1_Reflection__42__22-45-09-219.txt Node

Date: Wed Jun 02 22:45:09 CEST 2021
User: mabdelazizm
Spectrometer: FLMS18565
Trigger mode: 0
Integration Time (sec): 2.000000E0
Scans to average: 1
Electric dark correction enabled: true
Nonlinearity correction enabled: false
Boxcar width: 12
XAxis mode: Wavelengths
Number of Pixels in Spectrum: 2048
>>>>>Begin Spectral Data<<<<<
179.071	59.26
179.452	-50.2
179.833	-38.4
180.214	-72.73
180.595	-1032.71
180.977	-300
181.358	-58.27
181.739	-260.78
182.12	37.18
182.501	23.74
182.882	88.46
183.262	25.71
183.643	26.2
184.024	19.06
184.405	22.92
184.786	29.44
185.166	23.04
185.547	23.61
185.927	14.52
186.308	14.38
186.689	11.26
187.069	14.34
187.449	11.77
187.83	12.32
188.21	13.08
188.59	12.04
188.971	15.48
189.351	17.55
189.731	21.51
190.111	21.63
190.491	21.06
190.871	18.73
191.251	20.39
191.631	18.41
192.011	17.62
192.391	16.15
192.771	19.03
193.151	18.65
193.531	19.23
193.91	19.72
194.29	18.32
194.67	17.34
195.049	16.24
195.429	17.39
195.808	18.77
196.188	19.01
196.567	17.96
196.946	16.75
197.326	16.4
197.705	17.24
198.084	16.85
198.464	17.32
198.843	16.63
199.222	15.28
199.601	15.02
199.98	14.69
200.359	14.91
200.738	15.54
201.117	15.32
201.496	14.13
201.875	12.66
202.254	10.99
202.632	9.84
203.011	9.34
203.39	8.02
203.768	7.8
204.147	9.15
204.525	9.61
204.904	10.03
205.282	8.64
205.661	8.21
206.039	8.15
206.418	9.21
206.796	9.66
207.174	8.92
207.552	9.65
207.931	9.17
208.309	9.12
208.687	9.41
209.065	10.07
209.443	9.67
209.821	9.1
210.199	8.32
210.577	7.4
210.954	8.5
211.332	9.36
211.71	10.42
212.088	11.6
212.465	11.3
212.843	11.11
213.221	10.53
213.598	10.99
213.976	9.63
214.353	9.24
214.731	9.58
215.108	9.62
215.485	9.81
215.863	9.64
216.24	9.38
216.617	9.49
216.994	9.86
217.371	9.74
217.749	9.24
218.126	9.13
218.503	8.88
218.88	8.83
219.256	8.88
219.633	8.46
220.01	9.17
220.387	9.25
220.764	8.81
221.14	8.46
221.517	8.16
221.894	7.83
222.27	8.2
222.647	8.25
223.023	7.32
223.4	7.76
223.776	8.13
224.153	7.67
224.529	7.39
224.905	7.58
225.282	7.53
225.658	7.27
226.034	6.87
226.41	6.36
226.786	6.17
227.162	6.04
227.538	5.76
227.914	5.63
228.29	5.29
228.666	4.98
229.042	4.83
229.418	4.58
229.793	4.24
230.169	4.39
230.545	4.15
230.92	4.14
231.296	4.06
231.672	4.01
232.047	3.87
232.422	3.72
232.798	3.58
233.173	3.38
233.549	3.38
233.924	3.24
234.299	2.82
234.674	2.69
235.05	2.6
235.425	2.65
235.8	2.56
236.175	2.54
236.55	2.51
236.925	2.4
237.3	2.36
237.675	2.32
238.049	2.37
238.424	2.41
238.799	2.35
239.174	2.38
239.548	2.18
239.923	2.17
240.297	2.08
240.672	2.1
241.046	2
241.421	2.03
241.795	2.12
242.17	2.14
242.544	2.06
242.918	2.07
243.293	2.11
243.667	2.18
244.041	2.18
244.415	2.15
244.789	2.06
245.163	2.14
245.537	2.15
245.911	2.13
246.285	2.2
246.659	2.21
247.033	2.26
247.406	2.28
247.78	2.17
248.154	2.18
248.528	2.21
248.901	2.25
249.275	2.26
249.648	2.26
250.022	2.29
250.395	2.31
250.769	2.27
251.142	2.34
251.515	2.26
251.888	2.26
252.262	2.22
252.635	2.21
253.008	2.22
253.381	2.14
253.754	2.16
254.127	2.24
254.5	2.22
254.873	2.13
255.246	2.14
255.619	2.11
255.992	2.04
256.364	2.08
256.737	2.12
257.11	2.13
257.483	2.11
257.855	2.01
258.228	1.99
258.6	2
258.973	2.03
259.345	2.03
259.718	1.93
260.09	1.93
260.462	1.81
260.834	1.83
261.207	1.83
261.579	1.86
261.951	1.85
262.323	1.79
262.695	1.82
263.067	1.86
263.439	1.79
263.811	1.74
264.183	1.75
264.555	1.69
264.927	1.67
265.298	1.71
265.67	1.62
266.042	1.54
266.413	1.57
266.785	1.56
267.156	1.57
267.528	1.57
267.899	1.52
268.271	1.49
268.642	1.42
269.013	1.41
269.385	1.46
269.756	1.5
270.127	1.52
270.498	1.5
270.87	1.46
271.241	1.43
271.612	1.46
271.983	1.46
272.354	1.41
272.724	1.44
273.095	1.5
273.466	1.49
273.837	1.54
274.208	1.53
274.578	1.51
274.949	1.52
275.32	1.49
275.69	1.47
276.061	1.46
276.431	1.49
276.802	1.47
277.172	1.52
277.542	1.51
277.913	1.5
278.283	1.58
278.653	1.5
279.023	1.47
279.394	1.47
279.764	1.47
280.134	1.47
280.504	1.51
280.874	1.48
281.244	1.39
281.614	1.38
281.983	1.35
282.353	1.3
282.723	1.33
283.093	1.32
283.462	1.32
283.832	1.29
284.202	1.31
284.571	1.35
284.941	1.32
285.31	1.29
285.68	1.27
286.049	1.22
286.418	1.16
286.788	1.19
287.157	1.15
287.526	1.16
287.895	1.18
288.264	1.23
288.633	1.22
289.002	1.21
289.371	1.23
289.74	1.16
290.109	1.16
290.478	1.28
290.847	1.33
291.216	1.34
291.585	1.31
291.953	1.28
292.322	1.29
292.691	1.28
293.059	1.28
293.428	1.22
293.796	1.17
294.165	1.24
294.533	1.28
294.901	1.34
295.27	1.34
295.638	1.3
296.006	1.25
296.374	1.31
296.743	1.25
297.111	1.21
297.479	1.11
297.847	1.09
298.215	1
298.583	0.96
298.95	1
299.318	1.02
299.686	0.97
300.054	0.91
300.422	0.89
300.789	0.93
301.157	0.95
301.525	0.94
301.892	0.92
302.26	0.93
302.627	0.97
302.994	0.99
303.362	0.95
303.729	0.91
304.097	0.8
304.464	0.86
304.831	0.89
305.198	0.87
305.565	0.84
305.932	0.82
306.299	0.87
306.666	0.91
307.033	0.91
307.4	1.04
307.767	1.07
308.134	1.05
308.501	1.04
308.867	0.99
309.234	1.05
309.601	1.08
309.967	1.05
310.334	1.03
310.701	0.97
311.067	0.95
311.433	0.96
311.8	1
312.166	1.01
312.533	1.06
312.899	1.04
313.265	1.09
313.631	1.08
313.997	1.1
314.363	1.04
314.729	1.1
315.096	1.09
315.461	1.07
315.827	1.06
316.193	1.05
316.559	1.01
316.925	1
317.291	1.02
317.656	1.02
318.022	1.07
318.388	1.01
318.753	0.93
319.119	0.93
319.484	0.93
319.85	0.97
320.215	0.99
320.581	0.97
320.946	0.88
321.311	0.88
321.676	0.83
322.042	0.84
322.407	0.88
322.772	0.9
323.137	0.93
323.502	0.99
323.867	0.93
324.232	0.96
324.597	0.95
324.962	0.99
325.327	1.04
325.691	1.03
326.056	1.06
326.421	1.05
326.785	1.03
327.15	0.95
327.514	0.96
327.879	1
328.243	1.01
328.608	1.04
328.972	1.09
329.337	1.13
329.701	1.12
330.065	1.19
330.429	1.19
330.794	1.18
331.158	1.2
331.522	1.14
331.886	1.14
332.25	0.98
332.614	0.95
332.978	0.93
333.342	0.98
333.705	0.98
334.069	0.92
334.433	0.91
334.797	0.87
335.16	0.88
335.524	0.83
335.887	0.88
336.251	0.92
336.614	0.9
336.978	0.92
337.341	0.96
337.705	0.94
338.068	0.99
338.431	0.99
338.794	0.99
339.158	0.99
339.521	0.94
339.884	0.93
340.247	0.92
340.61	0.94
340.973	0.89
341.336	1.04
341.699	1.09
342.062	1.11
342.424	1.07
342.787	1.06
343.15	1.08
343.512	1.04
343.875	1.03
344.238	0.95
344.6	1.04
344.963	1.05
345.325	1.03
345.688	0.97
346.05	0.98
346.412	0.92
346.775	0.91
347.137	0.81
347.499	0.79
347.861	0.8
348.223	0.81
348.585	0.79
348.947	0.83
349.309	0.84
349.671	0.8
350.033	0.81
350.395	0.78
350.757	0.77
351.118	0.78
351.48	0.79
351.842	0.82
352.203	0.8
352.565	0.82
352.927	0.86
353.288	0.89
353.65	0.74
354.011	0.7
354.372	0.76
354.734	0.79
355.095	0.79
355.456	0.82
355.817	0.82
356.179	0.8
356.54	0.74
356.901	0.75
357.262	0.7
357.623	0.69
357.984	0.73
358.345	0.7
358.705	0.68
359.066	0.64
359.427	0.6
359.788	0.64
360.148	0.63
360.509	0.52
360.87	0.49
361.23	0.54
361.591	0.54
361.951	0.53
362.312	0.56
362.672	0.7
363.032	0.71
363.393	0.7
363.753	0.69
364.113	0.65
364.473	0.62
364.833	0.65
365.193	0.69
365.553	0.82
365.913	0.78
366.273	0.83
366.633	0.94
366.993	0.88
367.353	0.87
367.713	0.96
368.072	0.95
368.432	0.92
368.792	0.91
369.151	0.87
369.511	0.9
369.87	0.85
370.23	0.85
370.589	0.84
370.949	0.9
371.308	0.87
371.667	0.91
372.027	0.94
372.386	0.92
372.745	0.94
373.104	1
373.463	1.02
373.822	1.02
374.181	1.03
374.54	0.91
374.899	0.88
375.258	0.79
375.617	0.69
375.975	0.73
376.334	0.73
376.693	0.71
377.052	0.74
377.41	0.74
377.769	0.74
378.127	0.76
378.486	0.86
378.844	0.96
379.202	0.96
379.561	0.98
379.919	0.95
380.277	0.97
380.636	0.96
380.994	0.91
381.352	0.91
381.71	0.89
382.068	0.86
382.426	0.86
382.784	0.87
383.142	0.9
383.5	0.91
383.857	0.98
384.215	1.05
384.573	1.01
384.931	0.88
385.288	0.92
385.646	0.87
386.003	0.87
386.361	0.94
386.718	0.95
387.076	1
387.433	0.94
387.791	0.88
388.148	0.88
388.505	0.88
388.862	0.83
389.22	0.87
389.577	0.87
389.934	0.88
390.291	0.92
390.648	0.96
391.005	0.97
391.362	1
391.718	1
392.075	0.89
392.432	0.89
392.789	0.85
393.145	0.89
393.502	0.98
393.859	1.09
394.215	1.16
394.572	1.25
394.928	1.31
395.285	1.29
395.641	1.25
395.997	1.21
396.354	1.31
396.71	1.41
397.066	1.43
397.422	1.44
397.778	1.5
398.134	1.42
398.491	1.47
398.846	1.56
399.202	1.62
399.558	1.68
399.914	1.67
400.27	1.7
400.626	1.76
400.981	1.83
401.337	1.92
401.693	2.08
402.048	2.19
402.404	2.31
402.759	2.32
403.115	2.31
403.47	2.38
403.826	2.48
404.181	2.63
404.536	2.73
404.892	2.9
405.247	2.95
405.602	3.01
405.957	3.03
406.312	3.29
406.667	3.44
407.022	3.64
407.377	3.73
407.732	3.83
408.087	3.91
408.442	4.03
408.796	4.19
409.151	4.33
409.506	4.52
409.86	4.72
410.215	4.96
410.57	5.07
410.924	5.12
411.279	5.28
411.633	5.56
411.987	5.81
412.342	5.94
412.696	6.19
413.05	6.45
413.404	6.68
413.758	7.06
414.113	7.36
414.467	7.63
414.821	7.89
415.175	8.11
415.529	8.36
415.882	8.61
416.236	8.94
416.59	9.12
416.944	9.37
417.298	9.72
417.651	10.01
418.005	10.29
418.358	10.58
418.712	10.98
419.065	11.3
419.419	11.64
419.772	11.96
420.126	12.41
420.479	12.81
420.832	13.17
421.185	13.52
421.539	13.77
421.892	14.05
422.245	14.41
422.598	14.69
422.951	15.1
423.304	15.47
423.657	15.89
424.01	16.31
424.363	16.74
424.715	17.25
425.068	17.64
425.421	18.28
425.773	18.8
426.126	19.33
426.479	19.95
426.831	20.41
427.184	20.86
427.536	21.23
427.889	21.59
428.241	22.09
428.593	22.54
428.945	22.85
429.298	23.27
429.65	23.74
430.002	24.25
430.354	24.81
430.706	25.23
431.058	25.69
431.41	26.04
431.762	26.37
432.114	26.8
432.466	27.24
432.817	27.52
433.169	27.89
433.521	28.26
433.872	28.58
434.224	28.78
434.576	29.09
434.927	29.22
435.279	29.39
435.63	29.6
435.981	29.81
436.333	30.05
436.684	30.37
437.035	30.47
437.387	30.69
437.738	30.83
438.089	30.87
438.44	30.96
438.791	31.07
439.142	31.14
439.493	31.34
439.844	31.4
440.195	31.54
440.545	31.61
440.896	31.68
441.247	31.85
441.598	31.96
441.948	32.13
442.299	32.13
442.649	32.28
443	32.45
443.35	32.56
443.701	32.76
444.051	32.95
444.401	33.09
444.752	33.22
445.102	33.31
445.452	33.25
445.802	33.47
446.152	33.57
446.502	33.85
446.852	34.05
447.202	34.14
447.552	34.29
447.902	34.35
448.252	34.48
448.602	34.99
448.952	35.16
449.301	35.33
449.651	35.5
450.001	35.74
450.35	35.89
450.7	36.2
451.049	36.47
451.399	36.69
451.748	36.97
452.097	37.08
452.447	37.21
452.796	37.32
453.145	37.63
453.494	37.69
453.843	37.88
454.193	38.22
454.542	38.34
454.891	38.58
455.239	38.81
455.588	39.16
455.937	39.58
456.286	39.83
456.635	40.25
456.984	40.47
457.332	40.33
457.681	40.5
458.03	40.62
458.378	40.72
458.727	40.86
459.075	41.18
459.423	41.26
459.772	41.36
460.12	41.5
460.468	41.54
460.817	41.87
461.165	42.14
461.513	42.38
461.861	42.51
462.209	42.72
462.557	42.8
462.905	42.88
463.253	43.03
463.601	43.24
463.949	43.13
464.297	42.94
464.644	42.86
464.992	42.81
465.34	42.63
465.687	42.56
466.035	42.57
466.383	42.62
466.73	42.76
467.078	42.81
467.425	42.64
467.772	42.62
468.12	42.59
468.467	42.59
468.814	42.67
469.161	42.65
469.508	42.43
469.856	42.04
470.203	41.85
470.55	41.66
470.897	41.48
471.243	41.44
471.59	41.18
471.937	41.15
472.284	41.05
472.631	40.98
472.977	41.04
473.324	41.03
473.671	41.05
474.017	41.1
474.364	40.97
474.71	41
475.057	40.9
475.403	40.69
475.749	40.62
476.096	40.64
476.442	40.6
476.788	40.54
477.134	40.65
477.48	40.57
477.826	40.69
478.172	40.75
478.518	40.94
478.864	41.07
479.21	41.3
479.556	41.63
479.902	41.8
480.248	42
480.593	42.17
480.939	42.4
481.285	42.68
481.63	42.91
481.976	43.1
482.321	43.22
482.667	43.5
483.012	43.75
483.357	44.02
483.703	44.33
484.048	44.86
484.393	45.26
484.738	45.66
485.084	45.93
485.429	46.31
485.774	46.68
486.119	47.12
486.464	47.47
486.808	47.86
487.153	48.35
487.498	48.63
487.843	48.99
488.188	49.34
488.532	49.74
488.877	50.27
489.222	50.71
489.566	51.16
489.911	51.46
490.255	51.81
490.6	52.19
490.944	52.63
491.288	52.9
491.633	53.4
491.977	53.68
492.321	54.06
492.665	54.33
493.009	54.67
493.353	54.92
493.697	55.32
494.041	55.59
494.385	55.79
494.729	55.98
495.073	56.14
495.417	56.44
495.76	56.65
496.104	57
496.448	57.2
496.791	57.4
497.135	57.58
497.479	57.81
497.822	58.04
498.165	58.04
498.509	58.3
498.852	58.53
499.196	58.73
499.539	58.84
499.882	59.1
500.225	59.19
500.568	59.36
500.911	59.28
501.254	59.36
501.597	59.47
501.94	59.65
502.283	59.65
502.626	59.78
502.969	59.95
503.312	60.07
503.654	60.2
503.997	60.26
504.34	60.32
504.682	60.46
505.025	60.44
505.367	60.58
505.71	60.65
506.052	60.7
506.395	60.71
506.737	60.93
507.079	61.02
507.421	61.01
507.764	61.11
508.106	61.27
508.448	61.32
508.79	61.39
509.132	61.42
509.474	61.65
509.816	61.67
510.158	61.57
510.499	61.46
510.841	61.47
511.183	61.47
511.525	61.54
511.866	61.55
512.208	61.54
512.549	61.63
512.891	61.66
513.232	61.66
513.574	61.8
513.915	61.88
514.256	62.03
514.598	62.07
514.939	62.22
515.28	62.16
515.621	62.2
515.962	62.37
516.303	62.46
516.644	62.36
516.985	62.37
517.326	62.42
517.667	62.39
518.008	62.36
518.349	62.48
518.69	62.58
519.03	62.67
519.371	62.77
519.712	62.98
520.052	62.95
520.393	63.03
520.733	63.13
521.074	63.14
521.414	63.25
521.754	63.17
522.095	63.2
522.435	63.29
522.775	63.31
523.115	63.34
523.455	63.23
523.795	63.27
524.135	63.16
524.475	63.01
524.815	63.02
525.155	63.18
525.495	63.27
525.835	63.28
526.175	63.3
526.514	63.49
526.854	63.52
527.194	63.51
527.533	63.59
527.873	63.62
528.212	63.54
528.552	63.51
528.891	63.57
529.23	63.66
529.57	63.64
529.909	63.58
530.248	63.63
530.587	63.71
530.927	63.57
531.266	63.55
531.605	63.62
531.944	63.62
532.283	63.71
532.621	63.77
532.96	64
533.299	64.04
533.638	64.12
533.977	64.06
534.315	64.13
534.654	64.3
534.992	64.34
535.331	64.23
535.67	64.19
536.008	64.16
536.346	64.25
536.685	64.24
537.023	64.16
537.361	64.11
537.7	63.97
538.038	63.97
538.376	63.99
538.714	64.14
539.052	64.24
539.39	64.18
539.728	64.29
540.066	64.25
540.404	64.24
540.741	64.17
541.079	64.22
541.417	64.14
541.755	64.13
542.092	64
542.43	63.96
542.767	63.84
543.105	63.76
543.442	63.72
543.78	63.87
544.117	64.06
544.454	64.04
544.792	64.02
545.129	64.01
545.466	64.06
545.803	64.03
546.14	63.96
546.477	63.81
546.814	63.76
547.151	63.58
547.488	63.45
547.825	63.55
548.162	63.5
548.499	63.4
548.835	63.42
549.172	63.44
549.509	63.54
549.845	63.63
550.182	63.6
550.518	63.76
550.855	63.88
551.191	63.95
551.528	64.02
551.864	63.83
552.2	63.8
552.537	63.69
552.873	63.72
553.209	63.74
553.545	63.73
553.881	63.69
554.217	63.62
554.553	63.74
554.889	63.87
555.225	63.97
555.561	64.13
555.896	64.16
556.232	64.08
556.568	64.13
556.903	64.35
557.239	64.14
557.575	64.14
557.91	64.15
558.245	64.06
558.581	63.97
558.916	63.96
559.252	63.85
559.587	63.87
559.922	63.83
560.257	64.04
560.592	64.04
560.928	64.18
561.263	64.26
561.598	64.17
561.933	64.14
562.267	64.37
562.602	64.48
562.937	64.4
563.272	64.5
563.607	64.36
563.941	64.28
564.276	64.49
564.611	64.47
564.945	64.41
565.28	64.18
565.614	64.33
565.949	64.3
566.283	64.29
566.617	64.43
566.951	64.42
567.286	64.38
567.62	64.36
567.954	64.4
568.288	64.51
568.622	64.27
568.956	64.26
569.29	64.29
569.624	64.28
569.958	64.35
570.292	64.5
570.626	64.53
570.959	64.59
571.293	64.72
571.627	64.59
571.96	64.65
572.294	64.69
572.627	64.51
572.961	64.6
573.294	64.54
573.627	64.73
573.961	64.81
574.294	64.88
574.627	64.85
574.961	64.86
575.294	64.77
575.627	64.74
575.96	64.68
576.293	64.55
576.626	64.45
576.959	64.65
577.292	64.65
577.624	64.64
577.957	64.62
578.29	64.78
578.623	64.72
578.955	64.55
579.288	64.5
579.62	64.41
579.953	64.47
580.285	64.58
580.618	64.6
580.95	64.67
581.282	64.5
581.615	64.63
581.947	64.49
582.279	64.39
582.611	64.34
582.943	64.39
583.275	64.34
583.607	64.55
583.939	64.61
584.271	64.71
584.603	64.89
584.935	64.95
585.267	64.84
585.598	64.93
585.93	64.87
586.262	64.95
586.593	64.83
586.925	64.77
587.256	64.77
587.588	64.85
587.919	65.04
588.25	65
588.582	64.95
588.913	64.9
589.244	64.87
589.575	65.1
589.907	65.09
590.238	65.29
590.569	65.48
590.9	65.63
591.231	65.61
591.562	65.55
591.892	65.44
592.223	65.51
592.554	65.45
592.885	65.4
593.215	65.31
593.546	65.18
593.877	65.05
594.207	65.05
594.538	64.94
594.868	64.94
595.198	65.02
595.529	65.11
595.859	65.17
596.189	64.94
596.52	65.13
596.85	65.15
597.18	65.29
597.51	65.31
597.84	65.24
598.17	65.12
598.5	65.01
598.83	65
599.16	64.95
599.489	64.89
599.819	64.93
600.149	65.02
600.479	64.82
600.808	64.88
601.138	64.88
601.467	64.92
601.797	65.05
602.126	65.05
602.456	65.06
602.785	65.16
603.114	65.21
603.443	65.26
603.773	65.37
604.102	65.28
604.431	65.31
604.76	65.28
605.089	65.08
605.418	64.94
605.747	64.82
606.076	64.77
606.405	64.7
606.733	64.7
607.062	64.74
607.391	64.71
607.72	64.72
608.048	64.64
608.377	64.52
608.705	64.52
609.034	64.36
609.362	64.36
609.69	64.34
610.019	64.41
610.347	64.63
610.675	64.59
611.004	64.61
611.332	64.42
611.66	64.46
611.988	64.21
612.316	64.17
612.644	64.39
612.972	64.36
613.3	64.69
613.627	64.9
613.955	65.06
614.283	65.4
614.611	65.51
614.938	65.59
615.266	65.73
615.593	66.01
615.921	66.07
616.248	66.02
616.576	66.01
616.903	66.09
617.23	66.56
617.558	66.89
617.885	66.69
618.212	66.7
618.539	66.51
618.866	66.34
619.193	66.33
619.52	66.26
619.847	66.01
620.174	66.06
620.501	65.97
620.828	65.81
621.155	65.62
621.481	65.36
621.808	65.05
622.135	64.9
622.461	64.47
622.788	64.56
623.114	64.65
623.441	64.38
623.767	64.18
624.093	64.23
624.42	64.22
624.746	64.51
625.072	64.64
625.398	64.5
625.725	64.08
626.051	64.57
626.377	64.63
626.703	64.81
627.029	65.06
627.354	64.86
627.68	65.22
628.006	65.47
628.332	65.54
628.658	65.58
628.983	65.39
629.309	65.76
629.634	66.12
629.96	66.13
630.285	66.89
630.611	67.09
630.936	67.09
631.262	67.14
631.587	67.42
631.912	67.3
632.237	67.63
632.562	68.53
632.887	68.59
633.213	68.54
633.538	68.52
633.863	68.57
634.187	68.2
634.512	68.49
634.837	68.37
635.162	68.29
635.487	68.15
635.811	68.46
636.136	69
636.461	69.77
636.785	69.57
637.11	70.39
637.434	70.46
637.758	70.06
638.083	70.15
638.407	69.6
638.731	70.34
639.056	70.86
639.38	70.64
639.704	70.36
640.028	70.6
640.352	70.1
640.676	69.18
641	68.65
641.324	68.47
641.648	68.26
641.972	68.05
642.295	68.38
642.619	68.47
642.943	67.99
643.266	68.41
643.59	69.11
643.913	68.54
644.237	68.18
644.56	67.45
644.884	67.65
645.207	67.03
645.53	66.77
645.854	67.46
646.177	67.44
646.5	67.66
646.823	66.94
647.146	66.57
647.469	66.52
647.792	66.16
648.115	65.84
648.438	66.19
648.761	67.07
649.084	67.14
649.406	66.76
649.729	65.42
650.052	65.05
650.374	64.77
650.697	64.32
651.019	64.26
651.342	64.23
651.664	64.11
651.987	64.12
652.309	64.02
652.631	64.14
652.953	64.17
653.276	64.14
653.598	64.23
653.92	63.89
654.242	64.13
654.564	64.08
654.886	64.19
655.208	64.31
655.53	64.4
655.851	64.57
656.173	64.76
656.495	64.71
656.816	64.3
657.138	64.08
657.46	64
657.781	65.84
658.103	67.43
658.424	68.7
658.746	69.59
659.067	70.19
659.388	69.76
659.709	69.79
