Data from T1_Reflection__76__23-20-17-152.txt Node

Date: Wed Jun 02 23:20:17 CEST 2021
User: mabdelazizm
Spectrometer: FLMS18565
Trigger mode: 0
Integration Time (sec): 2.000000E0
Scans to average: 1
Electric dark correction enabled: true
Nonlinearity correction enabled: false
Boxcar width: 12
XAxis mode: Wavelengths
Number of Pixels in Spectrum: 2048
>>>>>Begin Spectral Data<<<<<
179.071	223.07
179.452	353.36
179.833	180.23
180.214	129.09
180.595	450.47
180.977	261.79
181.358	216.31
181.739	458.82
182.12	154.67
182.501	217.12
182.882	173.33
183.262	169.52
183.643	104.25
184.024	51.9
184.405	40.94
184.786	33.74
185.166	21.85
185.547	10.3
185.927	5.76
186.308	11.54
186.689	14.28
187.069	11.37
187.449	7.98
187.83	7.36
188.21	3.62
188.59	4.64
188.971	5.5
189.351	9.44
189.731	12.88
190.111	15.49
190.491	16.72
190.871	12.4
191.251	12.95
191.631	15.3
192.011	14.26
192.391	13.1
192.771	14.88
193.151	13.47
193.531	14.27
193.91	15.29
194.29	14.49
194.67	14.17
195.049	15.84
195.429	15.56
195.808	15.31
196.188	14.24
196.567	14.11
196.946	15.25
197.326	15.35
197.705	16.04
198.084	15.4
198.464	15.92
198.843	14.34
199.222	13.91
199.601	14.33
199.98	13.84
200.359	15.23
200.738	17.08
201.117	15.96
201.496	15.33
201.875	13.19
202.254	12.97
202.632	12.64
203.011	13.28
203.39	11.96
203.768	12.2
204.147	13.66
204.525	12.82
204.904	13.85
205.282	13.31
205.661	12.2
206.039	12.72
206.418	12.87
206.796	12.87
207.174	12.09
207.552	12.54
207.931	12.44
208.309	12.82
208.687	12.64
209.065	12.32
209.443	12.02
209.821	12.26
210.199	10.74
210.577	9.59
210.954	9.58
211.332	11.51
211.71	10.6
212.088	11.05
212.465	10.46
212.843	10.59
213.221	10.67
213.598	10.57
213.976	10.32
214.353	9.33
214.731	9.63
215.108	10.47
215.485	9.88
215.863	9
216.24	8.28
216.617	9
216.994	9.49
217.371	8.55
217.749	8.17
218.126	7.82
218.503	7.5
218.88	7.02
219.256	6.95
219.633	6.59
220.01	7.7
220.387	7.5
220.764	6.54
221.14	7.02
221.517	7.14
221.894	7.17
222.27	8.01
222.647	7.89
223.023	7.26
223.4	7.48
223.776	7.71
224.153	7.5
224.529	7.02
224.905	7.44
225.282	7.63
225.658	7.57
226.034	7.43
226.41	7.21
226.786	7.32
227.162	7.27
227.538	7.49
227.914	7.39
228.29	7.36
228.666	6.98
229.042	6.98
229.418	6.92
229.793	7.06
230.169	7.26
230.545	7.09
230.92	7.07
231.296	6.92
231.672	6.6
232.047	6.41
232.422	6.5
232.798	6.34
233.173	6.33
233.549	6.42
233.924	6.35
234.299	6.04
234.674	6.05
235.05	6.09
235.425	5.98
235.8	5.84
236.175	5.73
236.55	5.75
236.925	5.59
237.3	5.59
237.675	5.57
238.049	5.67
238.424	5.7
238.799	5.67
239.174	5.73
239.548	5.62
239.923	5.6
240.297	5.53
240.672	5.56
241.046	5.49
241.421	5.58
241.795	5.55
242.17	5.6
242.544	5.57
242.918	5.49
243.293	5.59
243.667	5.64
244.041	5.6
244.415	5.53
244.789	5.55
245.163	5.58
245.537	5.66
245.911	5.64
246.285	5.64
246.659	5.69
247.033	5.68
247.406	5.7
247.78	5.64
248.154	5.61
248.528	5.53
248.901	5.49
249.275	5.48
249.648	5.44
250.022	5.46
250.395	5.51
250.769	5.44
251.142	5.48
251.515	5.43
251.888	5.37
252.262	5.33
252.635	5.25
253.008	5.21
253.381	5.12
253.754	5.12
254.127	5.13
254.5	5.13
254.873	5.02
255.246	5.01
255.619	5.05
255.992	4.99
256.364	5.01
256.737	4.98
257.11	4.99
257.483	4.98
257.855	4.96
258.228	4.97
258.6	4.96
258.973	5.01
259.345	4.93
259.718	4.87
260.09	4.92
260.462	4.89
260.834	4.88
261.207	4.86
261.579	4.87
261.951	4.86
262.323	4.89
262.695	4.92
263.067	4.95
263.439	4.92
263.811	4.93
264.183	4.92
264.555	4.86
264.927	4.86
265.298	4.88
265.67	4.82
266.042	4.79
266.413	4.76
266.785	4.71
267.156	4.65
267.528	4.64
267.899	4.61
268.271	4.57
268.642	4.58
269.013	4.57
269.385	4.55
269.756	4.53
270.127	4.49
270.498	4.53
270.87	4.5
271.241	4.5
271.612	4.44
271.983	4.41
272.354	4.38
272.724	4.38
273.095	4.36
273.466	4.38
273.837	4.42
274.208	4.31
274.578	4.25
274.949	4.29
275.32	4.31
275.69	4.28
276.061	4.28
276.431	4.29
276.802	4.29
277.172	4.3
277.542	4.3
277.913	4.3
278.283	4.31
278.653	4.26
279.023	4.24
279.394	4.24
279.764	4.22
280.134	4.2
280.504	4.2
280.874	4.24
281.244	4.23
281.614	4.23
281.983	4.22
282.353	4.21
282.723	4.23
283.093	4.22
283.462	4.24
283.832	4.22
284.202	4.2
284.571	4.16
284.941	4.13
285.31	4.15
285.68	4.15
286.049	4.12
286.418	4.07
286.788	4.09
287.157	4.05
287.526	4.01
287.895	4
288.264	4.01
288.633	4.01
289.002	3.96
289.371	3.99
289.74	3.94
290.109	3.86
290.478	3.88
290.847	3.86
291.216	3.86
291.585	3.78
291.953	3.74
292.322	3.77
292.691	3.79
293.059	3.76
293.428	3.68
293.796	3.66
294.165	3.67
294.533	3.63
294.901	3.64
295.27	3.68
295.638	3.7
296.006	3.62
296.374	3.66
296.743	3.66
297.111	3.66
297.479	3.61
297.847	3.59
298.215	3.56
298.583	3.56
298.95	3.58
299.318	3.61
299.686	3.55
300.054	3.54
300.422	3.52
300.789	3.57
301.157	3.55
301.525	3.51
301.892	3.5
302.26	3.54
302.627	3.59
302.994	3.59
303.362	3.56
303.729	3.55
304.097	3.51
304.464	3.45
304.831	3.43
305.198	3.42
305.565	3.37
305.932	3.35
306.299	3.33
306.666	3.34
307.033	3.32
307.4	3.39
307.767	3.34
308.134	3.33
308.501	3.32
308.867	3.32
309.234	3.31
309.601	3.25
309.967	3.23
310.334	3.28
310.701	3.16
311.067	3.1
311.433	3.06
311.8	3.07
312.166	3.06
312.533	3.14
312.899	3.1
313.265	3.1
313.631	3.08
313.997	3.07
314.363	3.02
314.729	3.06
315.096	3.02
315.461	3.01
315.827	3.03
316.193	3.07
316.559	3.08
316.925	3.12
317.291	3.12
317.656	3.13
318.022	3.2
318.388	3.19
318.753	3.21
319.119	3.2
319.484	3.13
319.85	3.21
320.215	3.2
320.581	3.21
320.946	3.14
321.311	3.12
321.676	3.06
322.042	3.07
322.407	3.09
322.772	3.11
323.137	3.16
323.502	3.21
323.867	3.17
324.232	3.21
324.597	3.21
324.962	3.21
325.327	3.17
325.691	3.14
326.056	3.09
326.421	3.1
326.785	3.07
327.15	2.98
327.514	2.96
327.879	2.94
328.243	2.96
328.608	3.02
328.972	3.04
329.337	3.1
329.701	3.11
330.065	3.17
330.429	3.17
330.794	3.12
331.158	3.12
331.522	3.14
331.886	3.12
332.25	3.02
332.614	3
332.978	2.97
333.342	3.01
333.705	2.98
334.069	2.91
334.433	2.93
334.797	2.85
335.16	2.85
335.524	2.83
335.887	2.84
336.251	2.9
336.614	2.91
336.978	2.91
337.341	2.92
337.705	2.9
338.068	2.97
338.431	2.99
338.794	2.96
339.158	2.91
339.521	2.87
339.884	2.9
340.247	2.89
340.61	2.83
340.973	2.87
341.336	2.92
341.699	2.92
342.062	2.93
342.424	2.91
342.787	2.91
343.15	2.94
343.512	2.88
343.875	2.86
344.238	2.88
344.6	2.86
344.963	2.88
345.325	2.79
345.688	2.76
346.05	2.75
346.412	2.65
346.775	2.63
347.137	2.5
347.499	2.42
347.861	2.43
348.223	2.43
348.585	2.45
348.947	2.49
349.309	2.51
349.671	2.48
350.033	2.43
350.395	2.42
350.757	2.34
351.118	2.35
351.48	2.36
351.842	2.39
352.203	2.37
352.565	2.43
352.927	2.6
353.288	2.55
353.65	2.5
354.011	2.42
354.372	2.41
354.734	2.4
355.095	2.38
355.456	2.42
355.817	2.4
356.179	2.37
356.54	2.4
356.901	2.4
357.262	2.39
357.623	2.34
357.984	2.34
358.345	2.33
358.705	2.31
359.066	2.22
359.427	2.21
359.788	2.27
360.148	2.29
360.509	2.16
360.87	2.09
361.23	2.08
361.591	2.09
361.951	2.02
362.312	2.02
362.672	2.05
363.032	2.06
363.393	2.11
363.753	2.13
364.113	2.13
364.473	2.1
364.833	2.15
365.193	2.17
365.553	2.22
365.913	2.19
366.273	2.26
366.633	2.38
366.993	2.33
367.353	2.34
367.713	2.4
368.072	2.47
368.432	2.43
368.792	2.41
369.151	2.34
369.511	2.38
369.87	2.37
370.23	2.37
370.589	2.34
370.949	2.24
371.308	2.21
371.667	2.24
372.027	2.27
372.386	2.27
372.745	2.25
373.104	2.26
373.463	2.33
373.822	2.25
374.181	2.29
374.54	2.16
374.899	2.15
375.258	2.04
375.617	1.95
375.975	2.01
376.334	1.98
376.693	1.91
377.052	1.9
377.41	1.94
377.769	1.99
378.127	1.96
378.486	2.01
378.844	2.11
379.202	2.1
379.561	2.12
379.919	2.15
380.277	2.22
380.636	2.19
380.994	2.19
381.352	2.13
381.71	2.12
382.068	2.11
382.426	2.08
382.784	2.14
383.142	2.18
383.5	2.19
383.857	2.22
384.215	2.25
384.573	2.22
384.931	2.09
385.288	2.07
385.646	2.05
386.003	2.06
386.361	2.06
386.718	2
387.076	2.06
387.433	2.06
387.791	2
388.148	2.02
388.505	2.01
388.862	2.05
389.22	2.09
389.577	2.11
389.934	2.14
390.291	2.2
390.648	2.18
391.005	2.2
391.362	2.21
391.718	2.23
392.075	2.14
392.432	2.21
392.789	2.11
393.145	2.24
393.502	2.27
393.859	2.3
394.215	2.38
394.572	2.44
394.928	2.5
395.285	2.53
395.641	2.53
395.997	2.48
396.354	2.51
396.71	2.61
397.066	2.63
397.422	2.59
397.778	2.57
398.134	2.53
398.491	2.54
398.846	2.52
399.202	2.53
399.558	2.61
399.914	2.63
400.27	2.61
400.626	2.58
400.981	2.52
401.337	2.5
401.693	2.59
402.048	2.51
402.404	2.58
402.759	2.69
403.115	2.67
403.47	2.75
403.826	2.73
404.181	2.8
404.536	2.82
404.892	2.88
405.247	2.82
405.602	2.81
405.957	2.74
406.312	2.77
406.667	2.71
407.022	2.75
407.377	2.72
407.732	2.79
408.087	2.78
408.442	2.76
408.796	2.79
409.151	2.76
409.506	2.81
409.86	2.9
410.215	2.95
410.57	3
410.924	3.04
411.279	3.01
411.633	3.06
411.987	3.1
412.342	3.02
412.696	3
413.05	2.97
413.404	2.98
413.758	3.12
414.113	3.15
414.467	3.13
414.821	3.26
415.175	3.34
415.529	3.4
415.882	3.35
416.236	3.39
416.59	3.36
416.944	3.38
417.298	3.48
417.651	3.41
418.005	3.49
418.358	3.57
418.712	3.64
419.065	3.62
419.419	3.59
419.772	3.56
420.126	3.67
420.479	3.71
420.832	3.79
421.185	3.76
421.539	3.86
421.892	3.85
422.245	3.92
422.598	3.9
422.951	4.03
423.304	4.11
423.657	4.12
424.01	4.12
424.363	4.24
424.715	4.38
425.068	4.44
425.421	4.55
425.773	4.67
426.126	4.76
426.479	4.93
426.831	5.02
427.184	5.03
427.536	5.06
427.889	5.13
428.241	5.27
428.593	5.41
428.945	5.47
429.298	5.53
429.65	5.5
430.002	5.77
430.354	5.86
430.706	5.9
431.058	5.99
431.41	6.03
431.762	6.01
432.114	6.03
432.466	6.1
432.817	6.19
433.169	6.25
433.521	6.22
433.872	6.29
434.224	6.21
434.576	6.21
434.927	6.09
435.279	6.18
435.63	6.16
435.981	6.19
436.333	6.27
436.684	6.27
437.035	6.21
437.387	6.19
437.738	6.13
438.089	6.05
438.44	6.08
438.791	5.88
439.142	5.87
439.493	5.91
439.844	5.86
440.195	5.79
440.545	5.83
440.896	5.84
441.247	5.87
441.598	5.88
441.948	5.87
442.299	5.88
442.649	5.92
443	6.02
443.35	6.04
443.701	6.09
444.051	5.99
444.401	6.01
444.752	6.01
445.102	5.96
445.452	6.01
445.802	5.95
446.152	5.93
446.502	6.02
446.852	6.07
447.202	5.99
447.552	6.07
447.902	6.03
448.252	5.91
448.602	7.29
448.952	7.39
449.301	7.45
449.651	7.5
450.001	7.44
450.35	7.52
450.7	7.55
451.049	7.59
451.399	7.55
451.748	7.6
452.097	7.58
452.447	7.66
452.796	7.71
453.145	7.81
453.494	7.78
453.843	7.89
454.193	7.99
454.542	8.08
454.891	8.05
455.239	8.04
455.588	8.09
455.937	8.3
456.286	8.39
456.635	8.54
456.984	8.79
457.332	7.4
457.681	7.32
458.03	7.37
458.378	7.37
458.727	7.4
459.075	7.33
459.423	7.47
459.772	7.58
460.12	7.63
460.468	7.61
460.817	7.83
461.165	7.82
461.513	7.9
461.861	8.08
462.209	8.19
462.557	8.14
462.905	8.12
463.253	8.21
463.601	8.25
463.949	8.2
464.297	8.12
464.644	8.05
464.992	7.97
465.34	8.01
465.687	7.97
466.035	7.85
466.383	7.93
466.73	7.91
467.078	7.86
467.425	7.92
467.772	7.82
468.12	7.73
468.467	7.67
468.814	7.75
469.161	7.77
469.508	7.57
469.856	7.48
470.203	7.46
470.55	7.24
470.897	7.1
471.243	7.08
471.59	6.99
471.937	6.86
472.284	6.98
472.631	6.98
472.977	7.12
473.324	7.05
473.671	7
474.017	6.86
474.364	6.8
474.71	6.75
475.057	6.68
475.403	6.41
475.749	6.34
476.096	6.23
476.442	6.36
476.788	6.3
477.134	6.25
477.48	6.09
477.826	6.07
478.172	6.09
478.518	6.12
478.864	6.04
479.21	6.13
479.556	6.22
479.902	6.23
480.248	6.15
480.593	6.19
480.939	6.14
481.285	6.15
481.63	6.13
481.976	6.15
482.321	6.2
482.667	6.21
483.012	6.21
483.357	6.3
483.703	6.42
484.048	6.72
484.393	6.81
484.738	6.99
485.084	7.05
485.429	7.15
485.774	7.26
486.119	7.43
486.464	7.57
486.808	7.74
487.153	7.93
487.498	8.05
487.843	8.13
488.188	8.22
488.532	8.35
488.877	8.65
489.222	8.91
489.566	9.11
489.911	9.33
490.255	9.56
490.6	9.79
490.944	10.1
491.288	10.36
491.633	10.67
491.977	10.88
492.321	11.08
492.665	11.29
493.009	11.53
493.353	11.72
493.697	11.91
494.041	12.16
494.385	12.44
494.729	12.66
495.073	12.84
495.417	13.04
495.76	13.24
496.104	13.51
496.448	13.8
496.791	14.1
497.135	14.34
497.479	14.48
497.822	14.64
498.165	14.84
498.509	15.07
498.852	15.19
499.196	15.42
499.539	15.58
499.882	15.73
500.225	15.91
500.568	16.09
500.911	16.19
501.254	16.32
501.597	16.48
501.94	16.57
502.283	16.67
502.626	16.87
502.969	16.96
503.312	17.08
503.654	17.21
503.997	17.3
504.34	17.35
504.682	17.52
505.025	17.52
505.367	17.56
505.71	17.64
506.052	17.83
506.395	17.91
506.737	17.98
507.079	17.96
507.421	18.05
507.764	18.04
508.106	17.98
508.448	18.04
508.79	18.02
509.132	18.04
509.474	18.15
509.816	18.15
510.158	18.08
510.499	18.06
510.841	18.13
511.183	18.08
511.525	18.04
511.866	17.97
512.208	18
512.549	18.01
512.891	18.09
513.232	18
513.574	17.93
513.915	17.87
514.256	17.72
514.598	17.62
514.939	17.62
515.28	17.59
515.621	17.6
515.962	17.51
516.303	17.59
516.644	17.64
516.985	17.62
517.326	17.56
517.667	17.5
518.008	17.41
518.349	17.35
518.69	17.39
519.03	17.36
519.371	17.29
519.712	17.24
520.052	17.23
520.393	17.29
520.733	17.16
521.074	17.1
521.414	16.96
521.754	16.9
522.095	16.9
522.435	16.91
522.775	17.01
523.115	16.97
523.455	16.9
523.795	16.84
524.135	16.76
524.475	16.74
524.815	16.69
525.155	16.66
525.495	16.57
525.835	16.6
526.175	16.5
526.514	16.42
526.854	16.37
527.194	16.31
527.533	16.22
527.873	16.22
528.212	16.08
528.552	16.05
528.891	15.96
529.23	15.98
529.57	15.97
529.909	15.98
530.248	15.96
530.587	15.89
530.927	15.85
531.266	15.82
531.605	15.71
531.944	15.65
532.283	15.57
532.621	15.54
532.96	15.55
533.299	15.42
533.638	15.4
533.977	15.36
534.315	15.24
534.654	15.35
534.992	15.25
535.331	15.14
535.67	15.1
536.008	15.06
536.346	14.95
536.685	14.86
537.023	14.73
537.361	14.59
537.7	14.4
538.038	14.3
538.376	14.1
538.714	14.1
539.052	14.14
539.39	14.11
539.728	14.14
540.066	14.16
540.404	14.01
540.741	13.97
541.079	13.8
541.417	13.77
541.755	13.71
542.092	13.59
542.43	13.54
542.767	13.4
543.105	13.17
543.442	13.22
543.78	13.25
544.117	13.26
544.454	13.34
544.792	13.25
545.129	13.35
545.466	13.32
545.803	13.29
546.14	13.28
546.477	13.26
546.814	13.27
547.151	13.03
547.488	13.14
547.825	13.06
548.162	12.96
548.499	12.96
548.835	13
549.172	13.08
549.509	13.22
549.845	13.24
550.182	13.3
550.518	13.34
550.855	13.35
551.191	13.5
551.528	13.64
551.864	13.54
552.2	13.43
552.537	13.38
552.873	13.28
553.209	13.28
553.545	13.24
553.881	13.3
554.217	13.33
554.553	13.35
554.889	13.31
555.225	13.35
555.561	13.56
555.896	13.41
556.232	13.47
556.568	13.45
556.903	13.44
557.239	13.39
557.575	13.28
557.91	13.37
558.245	13.34
558.581	13.32
558.916	13.29
559.252	13.38
559.587	13.28
559.922	13.31
560.257	13.43
560.592	13.46
560.928	13.53
561.263	13.73
561.598	13.75
561.933	13.69
562.267	13.83
562.602	13.9
562.937	13.99
563.272	14.01
563.607	14.22
563.941	14.23
564.276	14.21
564.611	14.14
564.945	14.1
565.28	14.1
565.614	14.16
565.949	14.34
566.283	14.33
566.617	14.44
566.951	14.46
567.286	14.55
567.62	14.55
567.954	14.68
568.288	14.73
568.622	14.83
568.956	14.88
569.29	14.93
569.624	14.86
569.958	14.93
570.292	14.95
570.626	14.94
570.959	14.94
571.293	15.03
571.627	15.04
571.96	15.02
572.294	15.06
572.627	15.11
572.961	15.21
573.294	15.33
573.627	15.36
573.961	15.49
574.294	15.46
574.627	15.54
574.961	15.54
575.294	15.48
575.627	15.45
575.96	15.47
576.293	15.49
576.626	15.41
576.959	15.41
577.292	15.45
577.624	15.46
577.957	15.55
578.29	15.59
578.623	15.69
578.955	15.63
579.288	15.68
579.62	15.66
579.953	15.73
580.285	15.76
580.618	15.78
580.95	15.87
581.282	15.81
581.615	15.78
581.947	15.9
582.279	15.9
582.611	16
582.943	15.98
583.275	16.03
583.607	16.27
583.939	16.33
584.271	16.38
584.603	16.41
584.935	16.56
585.267	16.53
585.598	16.64
585.93	16.82
586.262	16.87
586.593	16.95
586.925	16.95
587.256	17.09
587.588	17.11
587.919	17.29
588.25	17.44
588.582	17.48
588.913	17.59
589.244	17.58
589.575	17.86
589.907	18.01
590.238	18.05
590.569	18.17
590.9	18.29
591.231	18.33
591.562	18.42
591.892	18.42
592.223	18.74
592.554	18.78
592.885	18.92
593.215	19.06
593.546	19.26
593.877	19.28
594.207	19.21
594.538	19.34
594.868	19.54
595.198	19.77
595.529	19.9
595.859	20.1
596.189	20.1
596.52	20.09
596.85	20.22
597.18	20.31
597.51	20.38
597.84	20.29
598.17	20.37
598.5	20.42
598.83	20.57
599.16	20.71
599.489	20.93
599.819	20.98
600.149	21.13
600.479	21.08
600.808	21.29
601.138	21.49
601.467	21.56
601.797	21.65
602.126	21.87
602.456	22.04
602.785	22.18
603.114	22.28
603.443	22.53
603.773	22.76
604.102	22.98
604.431	23.18
604.76	23.46
605.089	23.63
605.418	23.81
605.747	24.06
606.076	24.36
606.405	24.54
606.733	24.8
607.062	25.01
607.391	25.15
607.72	25.31
608.048	25.52
608.377	25.74
608.705	26.05
609.034	26.35
609.362	26.46
609.69	26.75
610.019	27.06
610.347	27.19
610.675	27.51
611.004	27.81
611.332	28.04
611.66	28.2
611.988	28.36
612.316	28.47
612.644	28.78
612.972	28.83
613.3	29
613.627	29.27
613.955	29.46
614.283	29.78
614.611	30.15
614.938	30.52
615.266	30.65
615.593	30.91
615.921	31.21
616.248	31.48
616.576	31.94
616.903	32.4
617.23	32.67
617.558	33.18
617.885	33.62
618.212	34.03
618.539	34.51
618.866	34.66
619.193	34.8
619.52	34.79
619.847	35.04
620.174	35.32
620.501	35.49
620.828	35.62
621.155	35.85
621.481	36.21
621.808	36.67
622.135	37.11
622.461	37.29
622.788	37.61
623.114	37.85
623.441	38.13
623.767	38.46
624.093	38.81
624.42	39.46
624.746	39.84
625.072	40.03
625.398	40.64
625.725	41.03
626.051	41.24
626.377	41.71
626.703	42.07
627.029	42.66
627.354	42.81
627.68	43.43
628.006	43.88
628.332	44.05
628.658	44.37
628.983	44.59
629.309	45.38
629.634	45.89
629.96	45.82
630.285	46.45
630.611	46.74
630.936	46.83
631.262	46.85
631.587	47.39
631.912	47.73
632.237	48.18
632.562	48.62
632.887	48.92
633.213	48.99
633.538	49.34
633.863	49.45
634.187	49.86
634.512	50.21
634.837	50.52
635.162	50.84
635.487	51
635.811	51.46
636.136	52.05
636.461	52.83
636.785	53.07
637.11	53.71
637.434	53.99
637.758	54.02
638.083	54.17
638.407	53.89
638.731	54.55
639.056	55.01
639.38	55.34
639.704	55.52
640.028	56.39
640.352	56.43
640.676	56.15
641	55.65
641.324	55.92
641.648	55.95
641.972	56.19
642.295	56.17
642.619	56.16
642.943	55.82
643.266	55.72
643.59	56.49
643.913	56.91
644.237	56.85
644.56	56.85
644.884	57.16
645.207	57.28
645.53	57.16
645.854	57.47
646.177	58.1
646.5	58.69
646.823	58.47
647.146	58.44
647.469	58.39
647.792	58.32
648.115	58.12
648.438	58.87
648.761	60.1
649.084	60.63
649.406	60.16
649.729	58.94
650.052	58.47
650.374	58.23
650.697	58.07
651.019	58.17
651.342	58.25
651.664	58.33
651.987	58.2
652.309	58.15
652.631	58.28
652.953	58.53
653.276	58.63
653.598	58.78
653.92	58.77
654.242	58.95
654.564	58.99
654.886	59.03
655.208	59.16
655.53	59.34
655.851	59.55
656.173	59.75
656.495	59.63
656.816	59.35
657.138	59.15
657.46	59.76
657.781	61.93
658.103	63.85
658.424	65.33
658.746	65.86
659.067	66.61
659.388	66.7
659.709	66.76
660.031	66.7
660.352	66.74
660.673	66.46
660.994	66.47
661.315	66.43
661.636	65.99
661.957	65.95
662.278	65.2
662.599	65.17
662.919	65.12
663.24	64.57
663.561	64.69
