Data from T1_Reflection__49__22-48-47-212.txt Node

Date: Wed Jun 02 22:48:47 CEST 2021
User: mabdelazizm
Spectrometer: FLMS18565
Trigger mode: 0
Integration Time (sec): 2.000000E0
Scans to average: 1
Electric dark correction enabled: true
Nonlinearity correction enabled: false
Boxcar width: 12
XAxis mode: Wavelengths
Number of Pixels in Spectrum: 2048
>>>>>Begin Spectral Data<<<<<
179.071	108.96
179.452	126.48
179.833	142.97
180.214	85.45
180.595	157.01
180.977	110.57
181.358	117.03
181.739	227.45
182.12	167
182.501	224.12
182.882	175.92
183.262	139.05
183.643	71.87
184.024	36.52
184.405	28.63
184.786	30.63
185.166	15.05
185.547	6.5
185.927	1.17
186.308	4.45
186.689	12.65
187.069	9.37
187.449	4.92
187.83	8.1
188.21	5.04
188.59	5.02
188.971	11.1
189.351	11.69
189.731	15.57
190.111	19.91
190.491	22.29
190.871	21.43
191.251	20.4
191.631	20.76
192.011	19.9
192.391	17.58
192.771	19.98
193.151	19.06
193.531	18.54
193.91	18.95
194.29	17.41
194.67	17.66
195.049	17.47
195.429	18.45
195.808	18
196.188	16.05
196.567	16.91
196.946	17.74
197.326	18.55
197.705	19
198.084	17.15
198.464	14.89
198.843	14.07
199.222	13.29
199.601	11.91
199.98	10.25
200.359	9.76
200.738	11.58
201.117	11.31
201.496	10.09
201.875	9.53
202.254	8.87
202.632	8.63
203.011	9.26
203.39	9.21
203.768	9.4
204.147	10.02
204.525	10
204.904	9.47
205.282	9.6
205.661	9.27
206.039	9.17
206.418	8.59
206.796	9.1
207.174	9.32
207.552	10.67
207.931	10.22
208.309	10.22
208.687	10.24
209.065	11.22
209.443	11.75
209.821	11.97
210.199	10.52
210.577	8.79
210.954	9.21
211.332	9.25
211.71	8.38
212.088	8.59
212.465	8.66
212.843	7.7
213.221	7.75
213.598	8.52
213.976	8.37
214.353	8.8
214.731	8.71
215.108	9.27
215.485	8.46
215.863	8.59
216.24	7.44
216.617	7.62
216.994	7.7
217.371	8.18
217.749	7.71
218.126	7.1
218.503	5.63
218.88	5.03
219.256	5.03
219.633	5.35
220.01	6.25
220.387	6.37
220.764	6.3
221.14	6.42
221.517	6.93
221.894	6.61
222.27	7.35
222.647	7.43
223.023	6.98
223.4	6.92
223.776	6.84
224.153	6.37
224.529	6.2
224.905	6.83
225.282	6.67
225.658	6.47
226.034	6.12
226.41	5.8
226.786	5.9
227.162	5.8
227.538	5.99
227.914	6.24
228.29	5.94
228.666	5.54
229.042	5.37
229.418	5.26
229.793	5.1
230.169	4.96
230.545	4.92
230.92	4.67
231.296	4.59
231.672	4.45
232.047	4.25
232.422	4.13
232.798	3.87
233.173	3.6
233.549	3.6
233.924	3.41
234.299	2.98
234.674	3.1
235.05	3.19
235.425	3.24
235.8	3.16
236.175	3.04
236.55	2.97
236.925	2.89
237.3	2.84
237.675	2.75
238.049	2.84
238.424	2.92
238.799	2.9
239.174	2.97
239.548	2.9
239.923	2.89
240.297	2.86
240.672	2.84
241.046	2.76
241.421	2.76
241.795	2.79
242.17	2.9
242.544	2.92
242.918	2.94
243.293	3.03
243.667	3.08
244.041	2.97
244.415	2.93
244.789	2.87
245.163	2.91
245.537	2.89
245.911	2.87
246.285	2.9
246.659	2.88
247.033	3.03
247.406	3.06
247.78	2.97
248.154	2.94
248.528	2.89
248.901	2.96
249.275	2.99
249.648	3.02
250.022	3.04
250.395	3.09
250.769	3.08
251.142	3.1
251.515	3.02
251.888	3.02
252.262	2.93
252.635	2.87
253.008	2.89
253.381	2.89
253.754	2.91
254.127	2.94
254.5	2.88
254.873	2.81
255.246	2.86
255.619	2.83
255.992	2.81
256.364	2.78
256.737	2.78
257.11	2.8
257.483	2.77
257.855	2.78
258.228	2.75
258.6	2.71
258.973	2.72
259.345	2.72
259.718	2.66
260.09	2.67
260.462	2.62
260.834	2.66
261.207	2.65
261.579	2.76
261.951	2.76
262.323	2.7
262.695	2.7
263.067	2.69
263.439	2.65
263.811	2.73
264.183	2.75
264.555	2.68
264.927	2.63
265.298	2.63
265.67	2.58
266.042	2.54
266.413	2.49
266.785	2.46
267.156	2.38
267.528	2.4
267.899	2.4
268.271	2.36
268.642	2.33
269.013	2.29
269.385	2.28
269.756	2.28
270.127	2.23
270.498	2.23
270.87	2.16
271.241	2.15
271.612	2.2
271.983	2.22
272.354	2.18
272.724	2.24
273.095	2.2
273.466	2.21
273.837	2.27
274.208	2.26
274.578	2.26
274.949	2.25
275.32	2.27
275.69	2.29
276.061	2.27
276.431	2.32
276.802	2.26
277.172	2.26
277.542	2.25
277.913	2.25
278.283	2.32
278.653	2.26
279.023	2.27
279.394	2.29
279.764	2.26
280.134	2.25
280.504	2.3
280.874	2.25
281.244	2.15
281.614	2.18
281.983	2.14
282.353	2.09
282.723	2.12
283.093	2.09
283.462	2.1
283.832	2.06
284.202	2.05
284.571	2.01
284.941	1.96
285.31	1.96
285.68	1.93
286.049	1.9
286.418	1.85
286.788	1.89
287.157	1.82
287.526	1.78
287.895	1.8
288.264	1.78
288.633	1.72
289.002	1.75
289.371	1.74
289.74	1.69
290.109	1.68
290.478	1.74
290.847	1.7
291.216	1.65
291.585	1.61
291.953	1.56
292.322	1.58
292.691	1.56
293.059	1.54
293.428	1.53
293.796	1.56
294.165	1.6
294.533	1.61
294.901	1.64
295.27	1.69
295.638	1.66
296.006	1.57
296.374	1.65
296.743	1.58
297.111	1.55
297.479	1.53
297.847	1.56
298.215	1.48
298.583	1.48
298.95	1.49
299.318	1.52
299.686	1.47
300.054	1.46
300.422	1.46
300.789	1.52
301.157	1.5
301.525	1.44
301.892	1.45
302.26	1.51
302.627	1.5
302.994	1.47
303.362	1.44
303.729	1.43
304.097	1.39
304.464	1.36
304.831	1.39
305.198	1.39
305.565	1.37
305.932	1.39
306.299	1.41
306.666	1.42
307.033	1.38
307.4	1.47
307.767	1.43
308.134	1.45
308.501	1.41
308.867	1.41
309.234	1.43
309.601	1.43
309.967	1.44
310.334	1.52
310.701	1.46
311.067	1.43
311.433	1.42
311.8	1.42
312.166	1.4
312.533	1.47
312.899	1.42
313.265	1.41
313.631	1.4
313.997	1.41
314.363	1.35
314.729	1.32
315.096	1.32
315.461	1.36
315.827	1.33
316.193	1.38
316.559	1.31
316.925	1.33
317.291	1.26
317.656	1.27
318.022	1.32
318.388	1.29
318.753	1.27
319.119	1.23
319.484	1.15
319.85	1.21
320.215	1.21
320.581	1.13
320.946	1.11
321.311	1.13
321.676	1.03
322.042	1
322.407	1.05
322.772	1.07
323.137	1.11
323.502	1.1
323.867	1.09
324.232	1.09
324.597	1.03
324.962	1.05
325.327	1.02
325.691	1.09
326.056	1.11
326.421	1.15
326.785	1.11
327.15	1.05
327.514	1.1
327.879	1.08
328.243	1.09
328.608	1.1
328.972	1.12
329.337	1.15
329.701	1.18
330.065	1.23
330.429	1.21
330.794	1.24
331.158	1.28
331.522	1.25
331.886	1.26
332.25	1.16
332.614	1.21
332.978	1.26
333.342	1.3
333.705	1.32
334.069	1.27
334.433	1.28
334.797	1.22
335.16	1.17
335.524	1.13
335.887	1.14
336.251	1.2
336.614	1.19
336.978	1.2
337.341	1.23
337.705	1.23
338.068	1.3
338.431	1.28
338.794	1.29
339.158	1.26
339.521	1.25
339.884	1.19
340.247	1.19
340.61	1.16
340.973	1.18
341.336	1.25
341.699	1.28
342.062	1.27
342.424	1.24
342.787	1.17
343.15	1.24
343.512	1.18
343.875	1.15
344.238	1.19
344.6	1.24
344.963	1.27
345.325	1.23
345.688	1.21
346.05	1.21
346.412	1.14
346.775	1.14
347.137	0.98
347.499	0.98
347.861	0.96
348.223	1.01
348.585	1.02
348.947	1.11
349.309	1.08
349.671	1.09
350.033	1.01
350.395	0.94
350.757	0.87
351.118	0.85
351.48	0.85
351.842	0.91
352.203	0.83
352.565	0.87
352.927	0.96
353.288	1
353.65	0.96
354.011	0.95
354.372	0.97
354.734	0.97
355.095	1.02
355.456	1
355.817	0.96
356.179	1
356.54	1
356.901	1.02
357.262	0.96
357.623	0.86
357.984	0.87
358.345	0.93
358.705	0.91
359.066	0.9
359.427	0.93
359.788	1
360.148	1
360.509	0.96
360.87	0.97
361.23	1.01
361.591	1.04
361.951	1.01
362.312	1.01
362.672	0.98
363.032	0.95
363.393	1.02
363.753	1.05
364.113	1.02
364.473	1.08
364.833	1.12
365.193	1.15
365.553	1.17
365.913	1.16
366.273	1.19
366.633	1.27
366.993	1.17
367.353	1.09
367.713	1.11
368.072	1.15
368.432	1.12
368.792	1.18
369.151	1.14
369.511	1.15
369.87	1.16
370.23	1.2
370.589	1.19
370.949	1.15
371.308	1.13
371.667	1.16
372.027	1.2
372.386	1.11
372.745	1.08
373.104	1.02
373.463	1.04
373.822	1.06
374.181	1.12
374.54	1.1
374.899	1.06
375.258	0.96
375.617	0.94
375.975	1.03
376.334	1.11
376.693	1.13
377.052	1.12
377.41	1.18
377.769	1.16
378.127	1.17
378.486	1.26
378.844	1.26
379.202	1.22
379.561	1.23
379.919	1.26
380.277	1.23
380.636	1.35
380.994	1.33
381.352	1.31
381.71	1.3
382.068	1.44
382.426	1.45
382.784	1.5
383.142	1.53
383.5	1.57
383.857	1.69
384.215	1.82
384.573	1.81
384.931	1.82
385.288	1.91
385.646	1.95
386.003	2
386.361	2.07
386.718	2.16
387.076	2.3
387.433	2.34
387.791	2.43
388.148	2.63
388.505	2.77
388.862	2.84
389.22	3.06
389.577	3.13
389.934	3.32
390.291	3.57
390.648	3.74
391.005	3.89
391.362	4.1
391.718	4.24
392.075	4.34
392.432	4.59
392.789	4.75
393.145	5.09
393.502	5.36
393.859	5.62
394.215	5.79
394.572	6.11
394.928	6.39
395.285	6.65
395.641	6.8
395.997	7.03
396.354	7.42
396.71	7.77
397.066	8.03
397.422	8.31
397.778	8.72
398.134	8.98
398.491	9.26
398.846	9.56
399.202	9.92
399.558	10.3
399.914	10.65
400.27	11.04
400.626	11.44
400.981	11.86
401.337	12.21
401.693	12.7
402.048	13.14
402.404	13.67
402.759	14.1
403.115	14.61
403.47	15.13
403.826	15.7
404.181	16.16
404.536	16.71
404.892	17.35
405.247	17.76
405.602	18.28
405.957	18.85
406.312	19.48
406.667	20
407.022	20.66
407.377	21.27
407.732	21.9
408.087	22.43
408.442	23.05
408.796	23.61
409.151	24.14
409.506	24.8
409.86	25.32
410.215	25.92
410.57	26.44
410.924	26.93
411.279	27.51
411.633	28.21
411.987	28.7
412.342	29.15
412.696	29.5
413.05	30.14
413.404	30.68
413.758	31.35
414.113	31.91
414.467	32.47
414.821	32.88
415.175	33.3
415.529	33.84
415.882	34.17
416.236	34.52
416.59	34.91
416.944	35.36
417.298	35.8
417.651	36.12
418.005	36.45
418.358	36.81
418.712	37.28
419.065	37.64
419.419	37.97
419.772	38.32
420.126	38.68
420.479	38.88
420.832	39.27
421.185	39.49
421.539	39.9
421.892	40.16
422.245	40.38
422.598	40.51
422.951	40.89
423.304	41.04
423.657	41.29
424.01	41.69
424.363	41.9
424.715	42.27
425.068	42.56
425.421	42.88
425.773	43.08
426.126	43.43
426.479	43.72
426.831	44
427.184	44.2
427.536	44.32
427.889	44.44
428.241	44.73
428.593	44.82
428.945	44.96
429.298	45.17
429.65	45.38
430.002	45.75
430.354	46.06
430.706	46.21
431.058	46.43
431.41	46.58
431.762	46.52
432.114	46.71
432.466	46.8
432.817	46.81
433.169	46.96
433.521	47.09
433.872	47.31
434.224	47.31
434.576	47.41
434.927	47.3
435.279	47.33
435.63	47.38
435.981	47.35
436.333	47.46
436.684	47.67
437.035	47.71
437.387	47.85
437.738	47.88
438.089	47.89
438.44	47.89
438.791	47.68
439.142	47.42
439.493	47.55
439.844	47.5
440.195	47.44
440.545	47.46
440.896	47.35
441.247	47.49
441.598	47.51
441.948	47.59
442.299	47.6
442.649	47.57
443	47.82
443.35	47.93
443.701	48.02
444.051	48.21
444.401	48.23
444.752	48.25
445.102	48.31
445.452	48.27
445.802	48.36
446.152	48.28
446.502	48.41
446.852	48.54
447.202	48.66
447.552	48.89
447.902	49.04
448.252	48.94
448.602	49.28
448.952	49.34
449.301	49.39
449.651	49.46
450.001	49.5
450.35	49.59
450.7	49.53
451.049	49.63
451.399	49.59
451.748	49.53
452.097	49.38
452.447	49.44
452.796	49.2
453.145	49.39
453.494	49.55
453.843	49.39
454.193	49.35
454.542	49.19
454.891	49.38
455.239	49.3
455.588	49.41
455.937	49.42
456.286	49.38
456.635	49.57
456.984	49.78
457.332	49.51
457.681	49.56
458.03	49.64
458.378	49.73
458.727	49.67
459.075	49.69
459.423	49.79
459.772	49.67
460.12	49.7
460.468	49.55
460.817	49.68
461.165	49.55
461.513	49.74
461.861	49.73
462.209	49.59
462.557	49.68
462.905	49.71
463.253	49.69
463.601	49.51
463.949	49.52
464.297	49.32
464.644	49.05
464.992	48.94
465.34	48.83
465.687	48.59
466.035	48.51
466.383	48.47
466.73	48.46
467.078	48.45
467.425	48.36
467.772	48.19
468.12	48
468.467	47.9
468.814	48.02
469.161	48.01
469.508	47.9
469.856	47.75
470.203	47.52
470.55	47.33
470.897	47.21
471.243	47.25
471.59	47.11
471.937	46.95
472.284	46.89
472.631	46.76
472.977	46.76
473.324	46.73
473.671	46.73
474.017	46.56
474.364	46.54
474.71	46.6
475.057	46.57
475.403	46.22
475.749	46.17
476.096	46.05
476.442	46
476.788	45.91
477.134	45.95
477.48	45.74
477.826	45.63
478.172	45.48
478.518	45.41
478.864	45.44
479.21	45.35
479.556	45.4
479.902	45.2
480.248	45.09
480.593	45.2
480.939	45.2
481.285	45.12
481.63	45.04
481.976	44.99
482.321	44.83
482.667	44.75
483.012	44.57
483.357	44.49
483.703	44.42
484.048	44.62
484.393	44.49
484.738	44.52
485.084	44.47
485.429	44.45
485.774	44.32
486.119	44.25
486.464	44.33
486.808	44.29
487.153	44.33
487.498	44.22
487.843	44.15
488.188	44.11
488.532	44.04
488.877	43.96
489.222	43.83
489.566	43.7
489.911	43.61
490.255	43.53
490.6	43.43
490.944	43.48
491.288	43.38
491.633	43.32
491.977	43.16
492.321	43.04
492.665	42.94
493.009	42.93
493.353	42.83
493.697	42.74
494.041	42.69
494.385	42.71
494.729	42.68
495.073	42.43
495.417	42.38
495.76	42.23
496.104	42.13
496.448	42.05
496.791	41.84
497.135	41.79
497.479	41.72
497.822	41.65
498.165	41.58
498.509	41.52
498.852	41.35
499.196	41.3
499.539	41.1
499.882	41.11
500.225	41.07
500.568	41.03
500.911	40.9
501.254	40.67
501.597	40.56
501.94	40.47
502.283	40.4
502.626	40.29
502.969	40.12
503.312	40.04
503.654	39.95
503.997	39.85
504.34	39.68
504.682	39.62
505.025	39.48
505.367	39.4
505.71	39.26
506.052	39.2
506.395	39.04
506.737	38.91
507.079	38.77
507.421	38.72
507.764	38.62
508.106	38.5
508.448	38.33
508.79	38.15
509.132	38.08
509.474	38.03
509.816	37.93
510.158	37.79
510.499	37.63
510.841	37.55
511.183	37.38
511.525	37.29
511.866	37.16
512.208	37.09
512.549	37
512.891	37.06
513.232	36.95
513.574	36.84
513.915	36.69
514.256	36.61
514.598	36.6
514.939	36.56
515.28	36.48
515.621	36.38
515.962	36.28
516.303	36.25
516.644	36.24
516.985	36.23
517.326	36.26
517.667	36.12
518.008	36
518.349	35.92
518.69	35.81
519.03	35.75
519.371	35.53
519.712	35.52
520.052	35.4
520.393	35.35
520.733	35.2
521.074	35.14
521.414	35.07
521.754	34.87
522.095	34.81
522.435	34.87
522.775	34.88
523.115	34.79
523.455	34.57
523.795	34.44
524.135	34.35
524.475	34.22
524.815	34.03
525.155	33.83
525.495	33.7
525.835	33.6
526.175	33.49
526.514	33.39
526.854	33.33
527.194	33.33
527.533	33.26
527.873	33.3
528.212	33.17
528.552	33.18
528.891	33.11
529.23	33.2
529.57	33.03
529.909	32.97
530.248	33.06
530.587	33.01
530.927	32.87
531.266	32.8
531.605	32.67
531.944	32.65
532.283	32.6
532.621	32.55
532.96	32.58
533.299	32.53
533.638	32.5
533.977	32.42
534.315	32.39
534.654	32.35
534.992	32.33
535.331	32.16
535.67	31.94
536.008	31.7
536.346	31.55
536.685	31.46
537.023	31.24
537.361	31.06
537.7	30.81
538.038	30.78
538.376	30.54
538.714	30.5
539.052	30.38
539.39	30.31
539.728	30.23
540.066	30.14
540.404	30.03
540.741	29.89
541.079	29.72
541.417	29.61
541.755	29.54
542.092	29.54
542.43	29.45
542.767	29.35
543.105	29.23
543.442	29.09
543.78	29.2
544.117	29.31
544.454	29.36
544.792	29.27
545.129	29.32
545.466	29.27
545.803	29.23
546.14	29.18
546.477	29.07
546.814	29.12
547.151	28.91
547.488	29.05
547.825	28.97
548.162	28.92
548.499	28.78
548.835	28.78
549.172	28.88
549.509	28.94
549.845	28.99
550.182	28.95
550.518	28.95
550.855	28.89
551.191	28.92
551.528	28.96
551.864	28.95
552.2	28.94
552.537	28.87
552.873	28.9
553.209	29.01
553.545	28.99
553.881	29.06
554.217	29.07
554.553	29.21
554.889	29.28
555.225	29.33
555.561	29.45
555.896	29.4
556.232	29.41
556.568	29.31
556.903	29.51
557.239	29.6
557.575	29.63
557.91	29.71
558.245	29.71
558.581	29.72
558.916	29.76
559.252	29.87
559.587	29.75
559.922	29.79
560.257	29.8
560.592	29.8
560.928	29.85
561.263	30.09
561.598	30
561.933	29.94
562.267	30.09
562.602	30.21
562.937	30.1
563.272	30.24
563.607	30.38
563.941	30.38
564.276	30.31
564.611	30.44
564.945	30.55
565.28	30.52
565.614	30.53
565.949	30.55
566.283	30.56
566.617	30.57
566.951	30.61
567.286	30.73
567.62	30.83
567.954	31.03
568.288	31.1
568.622	31.17
568.956	31.12
569.29	31.16
569.624	31.15
569.958	31.29
570.292	31.46
570.626	31.64
570.959	31.71
571.293	31.86
571.627	31.8
571.96	31.83
572.294	31.89
572.627	31.96
572.961	31.9
573.294	32.01
573.627	32.07
573.961	32.17
574.294	32.25
574.627	32.42
574.961	32.48
575.294	32.56
575.627	32.49
575.96	32.5
576.293	32.52
576.626	32.56
576.959	32.58
577.292	32.71
577.624	32.76
577.957	32.79
578.29	32.8
578.623	32.81
578.955	32.68
579.288	32.61
579.62	32.64
579.953	32.79
580.285	32.93
580.618	33
580.95	33.15
581.282	33.25
581.615	33.28
581.947	33.36
582.279	33.44
582.611	33.51
582.943	33.51
583.275	33.59
583.607	33.68
583.939	33.85
584.271	33.94
584.603	34.04
584.935	34.09
585.267	34.23
585.598	34.29
585.93	34.32
586.262	34.35
586.593	34.59
586.925	34.53
587.256	34.62
587.588	34.76
587.919	34.88
588.25	34.94
588.582	34.82
588.913	34.96
589.244	34.94
589.575	35.26
589.907	35.44
590.238	35.5
590.569	35.56
590.9	35.63
591.231	35.76
591.562	35.81
591.892	35.91
592.223	36.05
592.554	36.16
592.885	36.2
593.215	36.26
593.546	36.33
593.877	36.36
594.207	36.54
594.538	36.64
594.868	36.65
595.198	36.87
595.529	37.1
595.859	37.36
596.189	37.37
596.52	37.49
596.85	37.78
597.18	37.99
597.51	38.13
597.84	37.99
598.17	37.94
598.5	38.1
598.83	38.32
599.16	38.59
599.489	38.6
599.819	38.78
600.149	38.93
600.479	38.95
600.808	39.1
601.138	39.25
601.467	39.49
601.797	39.7
602.126	40.05
602.456	40.13
602.785	40.36
603.114	40.59
603.443	40.89
603.773	41
604.102	41.2
604.431	41.48
604.76	41.7
605.089	41.8
605.418	41.8
605.747	41.88
606.076	42.25
606.405	42.46
606.733	42.62
607.062	42.68
607.391	42.82
607.72	43.08
608.048	43.25
608.377	43.41
608.705	43.68
609.034	43.88
609.362	44.3
609.69	44.61
610.019	44.94
610.347	45.08
610.675	45.48
611.004	45.66
611.332	45.85
611.66	46.23
611.988	46.37
612.316	46.37
612.644	46.58
612.972	46.7
613.3	46.93
613.627	47.29
613.955	47.5
614.283	47.72
614.611	48.02
614.938	48.2
615.266	48.69
615.593	48.92
615.921	49.28
616.248	49.54
616.576	49.83
616.903	50.39
617.23	50.6
617.558	50.99
617.885	51.11
618.212	51.18
618.539	51.43
618.866	51.32
619.193	51.65
619.52	51.68
619.847	51.44
620.174	51.6
620.501	52.01
620.828	52.19
621.155	52.4
621.481	52.37
621.808	52.69
622.135	53.15
622.461	53.17
622.788	53.17
623.114	53.53
623.441	53.22
623.767	53.24
624.093	53.45
624.42	53.79
624.746	54.52
625.072	54.63
625.398	55.24
625.725	55.15
626.051	55.47
626.377	55.87
626.703	56.49
627.029	57.08
627.354	57.12
627.68	57.61
628.006	57.91
628.332	58.28
628.658	58.42
628.983	58.45
629.309	58.91
629.634	59.6
629.96	59
630.285	59.43
630.611	59.76
630.936	60.22
631.262	60.81
631.587	61.31
631.912	61.74
632.237	62.14
632.562	62.49
632.887	62.36
633.213	62.57
633.538	63.08
633.863	63.06
634.187	63.41
634.512	63.74
634.837	63.28
635.162	63.49
635.487	63.72
635.811	63.77
636.136	64.11
636.461	64.24
636.785	64.14
637.11	64.48
637.434	64.61
637.758	64.06
638.083	64.75
638.407	64.68
638.731	64.83
639.056	65.1
639.38	64.66
639.704	64.97
640.028	65.14
640.352	64.44
640.676	64.37
641	64.1
641.324	64.15
641.648	63.7
641.972	63.94
642.295	63.79
642.619	63.95
642.943	63.94
643.266	63.74
643.59	64.13
643.913	64.12
644.237	63.82
644.56	63.55
644.884	63.58
645.207	63.36
645.53	63.08
645.854	63.63
646.177	63.61
646.5	63.75
646.823	63.91
647.146	64.11
647.469	64.05
647.792	63.6
648.115	63.76
648.438	64.71
648.761	65.84
649.084	65.89
649.406	65.91
649.729	64.66
650.052	64.16
650.374	64.04
650.697	63.67
651.019	63.72
651.342	63.74
651.664	63.67
651.987	63.7
652.309	63.83
652.631	64.18
652.953	64.26
653.276	64.29
653.598	64.44
653.92	64.29
654.242	64.43
654.564	64.38
654.886	64.38
655.208	64.36
655.53	64.36
655.851	64.49
656.173	64.42
656.495	64.5
656.816	63.8
657.138	63.8
657.46	63.71
657.781	65.57
658.103	67.25
658.424	68.46
658.746	69.29
659.067	69.9
659.388	70.1
659.709	70.49
