Data from T1_Reflection__106__23-44-45-106.txt Node

Date: Wed Jun 02 23:44:45 CEST 2021
User: mabdelazizm
Spectrometer: FLMS18565
Trigger mode: 0
Integration Time (sec): 2.000000E0
Scans to average: 1
Electric dark correction enabled: true
Nonlinearity correction enabled: false
Boxcar width: 12
XAxis mode: Wavelengths
Number of Pixels in Spectrum: 2048
>>>>>Begin Spectral Data<<<<<
179.071	52.27
179.452	87.75
179.833	34.22
180.214	-16.36
180.595	-1014.95
180.977	-388.62
181.358	-194.24
181.739	-560.78
182.12	-163.42
182.501	-122.18
182.882	-16.12
183.262	-144.76
183.643	-87.68
184.024	-28.22
184.405	-17.03
184.786	-10.81
185.166	-13.49
185.547	-6.82
185.927	-12.71
186.308	-2.6
186.689	1.71
187.069	3.2
187.449	-5.07
187.83	-6.53
188.21	-6.65
188.59	-6.68
188.971	-4.93
189.351	-1.85
189.731	1.69
190.111	6.44
190.491	6.96
190.871	6.15
191.251	7.65
191.631	6.31
192.011	6.02
192.391	4.1
192.771	7.53
193.151	8.84
193.531	6.87
193.91	7.63
194.29	7.57
194.67	6.2
195.049	5.39
195.429	4.84
195.808	4.33
196.188	2.54
196.567	2.12
196.946	2.44
197.326	2.81
197.705	3.19
198.084	2.57
198.464	1.72
198.843	0.61
199.222	-0.63
199.601	-1.6
199.98	-1.68
200.359	-2.25
200.738	-1.37
201.117	-1.21
201.496	-1.34
201.875	-1.87
202.254	-2.41
202.632	-3.31
203.011	-1.96
203.39	-2.56
203.768	-1.6
204.147	0.11
204.525	-0.68
204.904	-0.89
205.282	-0.83
205.661	-0.85
206.039	-0.28
206.418	0.33
206.796	0.86
207.174	0.88
207.552	1.88
207.931	2.73
208.309	3.01
208.687	3.41
209.065	4.5
209.443	4.25
209.821	4.81
210.199	3.71
210.577	2.62
210.954	2.06
211.332	3.01
211.71	2.88
212.088	3.68
212.465	3.94
212.843	3.92
213.221	3.54
213.598	3.61
213.976	3.83
214.353	4.04
214.731	4.15
215.108	4.61
215.485	3.43
215.863	3.78
216.24	3.09
216.617	3.05
216.994	2.81
217.371	1.98
217.749	1.58
218.126	1.02
218.503	0.28
218.88	-0.16
219.256	-0.03
219.633	-0.13
220.01	1.44
220.387	2.31
220.764	2.46
221.14	2.44
221.517	2.34
221.894	1.79
222.27	2.65
222.647	2.55
223.023	2.03
223.4	2.32
223.776	3
224.153	2.65
224.529	2.43
224.905	3.38
225.282	3.17
225.658	2.97
226.034	2.66
226.41	2.66
226.786	2.9
227.162	2.96
227.538	3.32
227.914	3.26
228.29	3.07
228.666	2.77
229.042	2.77
229.418	2.45
229.793	2.1
230.169	2.15
230.545	2.11
230.92	2.18
231.296	2.09
231.672	1.82
232.047	1.59
232.422	1.7
232.798	1.47
233.173	1.06
233.549	1.16
233.924	1.14
234.299	0.75
234.674	0.76
235.05	0.76
235.425	0.84
235.8	0.73
236.175	0.65
236.55	0.61
236.925	0.47
237.3	0.47
237.675	0.51
238.049	0.57
238.424	0.6
238.799	0.64
239.174	0.76
239.548	0.58
239.923	0.53
240.297	0.44
240.672	0.45
241.046	0.43
241.421	0.49
241.795	0.41
242.17	0.48
242.544	0.51
242.918	0.42
243.293	0.38
243.667	0.49
244.041	0.47
244.415	0.47
244.789	0.44
245.163	0.49
245.537	0.52
245.911	0.59
246.285	0.64
246.659	0.68
247.033	0.73
247.406	0.77
247.78	0.71
248.154	0.69
248.528	0.6
248.901	0.62
249.275	0.68
249.648	0.7
250.022	0.73
250.395	0.76
250.769	0.79
251.142	0.88
251.515	0.81
251.888	0.82
252.262	0.83
252.635	0.82
253.008	0.81
253.381	0.77
253.754	0.77
254.127	0.81
254.5	0.79
254.873	0.7
255.246	0.63
255.619	0.59
255.992	0.54
256.364	0.56
256.737	0.54
257.11	0.64
257.483	0.59
257.855	0.62
258.228	0.61
258.6	0.57
258.973	0.58
259.345	0.59
259.718	0.51
260.09	0.5
260.462	0.46
260.834	0.49
261.207	0.49
261.579	0.57
261.951	0.57
262.323	0.53
262.695	0.54
263.067	0.53
263.439	0.51
263.811	0.57
264.183	0.61
264.555	0.6
264.927	0.62
265.298	0.63
265.67	0.56
266.042	0.5
266.413	0.45
266.785	0.44
267.156	0.41
267.528	0.43
267.899	0.4
268.271	0.39
268.642	0.3
269.013	0.34
269.385	0.38
269.756	0.37
270.127	0.36
270.498	0.36
270.87	0.31
271.241	0.31
271.612	0.3
271.983	0.27
272.354	0.29
272.724	0.27
273.095	0.26
273.466	0.27
273.837	0.31
274.208	0.24
274.578	0.22
274.949	0.25
275.32	0.26
275.69	0.26
276.061	0.28
276.431	0.34
276.802	0.31
277.172	0.33
277.542	0.29
277.913	0.34
278.283	0.35
278.653	0.32
279.023	0.34
279.394	0.32
279.764	0.33
280.134	0.28
280.504	0.35
280.874	0.37
281.244	0.3
281.614	0.24
281.983	0.28
282.353	0.27
282.723	0.29
283.093	0.28
283.462	0.31
283.832	0.33
284.202	0.35
284.571	0.34
284.941	0.26
285.31	0.24
285.68	0.22
286.049	0.21
286.418	0.15
286.788	0.23
287.157	0.21
287.526	0.2
287.895	0.15
288.264	0.16
288.633	0.15
289.002	0.14
289.371	0.18
289.74	0.1
290.109	0.07
290.478	0.14
290.847	0.19
291.216	0.13
291.585	0.1
291.953	0
292.322	-0
292.691	-0.04
293.059	-0.08
293.428	-0.14
293.796	-0.13
294.165	-0.06
294.533	-0.1
294.901	-0.12
295.27	-0.07
295.638	-0.06
296.006	-0.12
296.374	-0.1
296.743	-0.11
297.111	-0.11
297.479	-0.17
297.847	-0.2
298.215	-0.24
298.583	-0.25
298.95	-0.24
299.318	-0.24
299.686	-0.24
300.054	-0.27
300.422	-0.29
300.789	-0.27
301.157	-0.25
301.525	-0.25
301.892	-0.19
302.26	-0.13
302.627	-0.14
302.994	-0.16
303.362	-0.27
303.729	-0.28
304.097	-0.34
304.464	-0.4
304.831	-0.38
305.198	-0.41
305.565	-0.39
305.932	-0.4
306.299	-0.36
306.666	-0.32
307.033	-0.3
307.4	-0.3
307.767	-0.28
308.134	-0.27
308.501	-0.26
308.867	-0.31
309.234	-0.26
309.601	-0.27
309.967	-0.27
310.334	-0.19
310.701	-0.27
311.067	-0.28
311.433	-0.3
311.8	-0.24
312.166	-0.21
312.533	-0.09
312.899	-0.07
313.265	-0.04
313.631	-0.04
313.997	-0.02
314.363	-0.06
314.729	-0.09
315.096	-0.1
315.461	-0.09
315.827	-0.16
316.193	-0.12
316.559	-0.09
316.925	-0.09
317.291	-0.11
317.656	-0.12
318.022	-0.07
318.388	-0.14
318.753	-0.14
319.119	-0.18
319.484	-0.22
319.85	-0.17
320.215	-0.17
320.581	-0.23
320.946	-0.29
321.311	-0.29
321.676	-0.36
322.042	-0.39
322.407	-0.34
322.772	-0.31
323.137	-0.28
323.502	-0.25
323.867	-0.26
324.232	-0.2
324.597	-0.25
324.962	-0.16
325.327	-0.2
325.691	-0.23
326.056	-0.21
326.421	-0.24
326.785	-0.22
327.15	-0.29
327.514	-0.29
327.879	-0.26
328.243	-0.23
328.608	-0.24
328.972	-0.21
329.337	-0.17
329.701	-0.18
330.065	-0.11
330.429	-0.16
330.794	-0.13
331.158	-0.09
331.522	-0.17
331.886	-0.16
332.25	-0.25
332.614	-0.23
332.978	-0.24
333.342	-0.22
333.705	-0.25
334.069	-0.3
334.433	-0.29
334.797	-0.3
335.16	-0.34
335.524	-0.32
335.887	-0.33
336.251	-0.26
336.614	-0.2
336.978	-0.22
337.341	-0.2
337.705	-0.2
338.068	-0.18
338.431	-0.2
338.794	-0.16
339.158	-0.2
339.521	-0.19
339.884	-0.22
340.247	-0.26
340.61	-0.2
340.973	-0.26
341.336	-0.23
341.699	-0.24
342.062	-0.26
342.424	-0.31
342.787	-0.31
343.15	-0.37
343.512	-0.41
343.875	-0.43
344.238	-0.46
344.6	-0.38
344.963	-0.36
345.325	-0.41
345.688	-0.48
346.05	-0.47
346.412	-0.54
346.775	-0.52
347.137	-0.63
347.499	-0.69
347.861	-0.71
348.223	-0.73
348.585	-0.76
348.947	-0.72
349.309	-0.71
349.671	-0.78
350.033	-0.74
350.395	-0.74
350.757	-0.74
351.118	-0.66
351.48	-0.66
351.842	-0.64
352.203	-0.63
352.565	-0.6
352.927	-0.53
353.288	-0.47
353.65	-0.57
354.011	-0.59
354.372	-0.53
354.734	-0.46
355.095	-0.47
355.456	-0.42
355.817	-0.46
356.179	-0.44
356.54	-0.37
356.901	-0.37
357.262	-0.38
357.623	-0.37
357.984	-0.38
358.345	-0.33
358.705	-0.3
359.066	-0.3
359.427	-0.28
359.788	-0.25
360.148	-0.24
360.509	-0.28
360.87	-0.21
361.23	-0.21
361.591	-0.2
361.951	-0.21
362.312	-0.2
362.672	-0.16
363.032	-0.2
363.393	-0.22
363.753	-0.25
364.113	-0.26
364.473	-0.27
364.833	-0.19
365.193	-0.18
365.553	-0.16
365.913	-0.24
366.273	-0.24
366.633	-0.14
366.993	-0.22
367.353	-0.24
367.713	-0.19
368.072	-0.23
368.432	-0.35
368.792	-0.33
369.151	-0.42
369.511	-0.47
369.87	-0.57
370.23	-0.53
370.589	-0.55
370.949	-0.6
371.308	-0.67
371.667	-0.69
372.027	-0.64
372.386	-0.63
372.745	-0.65
373.104	-0.62
373.463	-0.66
373.822	-0.69
374.181	-0.6
374.54	-0.66
374.899	-0.63
375.258	-0.64
375.617	-0.72
375.975	-0.58
376.334	-0.57
376.693	-0.55
377.052	-0.47
377.41	-0.39
377.769	-0.35
378.127	-0.35
378.486	-0.27
378.844	-0.2
379.202	-0.22
379.561	-0.14
379.919	-0.12
380.277	-0.08
380.636	-0.05
380.994	-0.07
381.352	-0.08
381.71	-0.01
382.068	0.01
382.426	0.07
382.784	-0
383.142	0.08
383.5	0.11
383.857	0.17
384.215	0.21
384.573	0.14
384.931	0.02
385.288	0.02
385.646	-0.02
386.003	-0.04
386.361	-0.01
386.718	-0.08
387.076	-0.02
387.433	0
387.791	0.03
388.148	0.16
388.505	0.15
388.862	0.15
389.22	0.27
389.577	0.32
389.934	0.37
390.291	0.4
390.648	0.43
391.005	0.52
391.362	0.6
391.718	0.71
392.075	0.53
392.432	0.63
392.789	0.75
393.145	0.89
393.502	1.08
393.859	1.22
394.215	1.44
394.572	1.62
394.928	1.71
395.285	1.86
395.641	2.04
395.997	2.17
396.354	2.32
396.71	2.49
397.066	2.57
397.422	2.74
397.778	2.98
398.134	3.07
398.491	3.26
398.846	3.47
399.202	3.71
399.558	3.92
399.914	4.05
400.27	4.26
400.626	4.46
400.981	4.82
401.337	5.09
401.693	5.36
402.048	5.71
402.404	6.08
402.759	6.43
403.115	6.61
403.47	6.88
403.826	7.28
404.181	7.66
404.536	7.94
404.892	8.31
405.247	8.66
405.602	9.05
405.957	9.39
406.312	9.78
406.667	10.09
407.022	10.51
407.377	10.94
407.732	11.4
408.087	11.91
408.442	12.28
408.796	12.76
409.151	13.18
409.506	13.72
409.86	14.1
410.215	14.59
410.57	15.09
410.924	15.45
411.279	15.87
411.633	16.37
411.987	16.98
412.342	17.43
412.696	17.84
413.05	18.38
413.404	18.9
413.758	19.51
414.113	20.14
414.467	20.63
414.821	21.16
415.175	21.72
415.529	22.28
415.882	22.73
416.236	23.25
416.59	23.67
416.944	24.09
417.298	24.72
417.651	25.12
418.005	25.63
418.358	26.11
418.712	26.6
419.065	27
419.419	27.32
419.772	27.75
420.126	28.14
420.479	28.55
420.832	28.81
421.185	29.16
421.539	29.56
421.892	29.91
422.245	30.4
422.598	30.66
422.951	30.99
423.304	31.3
423.657	31.63
424.01	31.96
424.363	32.35
424.715	32.83
425.068	33.08
425.421	33.48
425.773	33.72
426.126	34.11
426.479	34.54
426.831	34.75
427.184	35.04
427.536	35.4
427.889	35.61
428.241	36.06
428.593	36.25
428.945	36.61
429.298	36.87
429.65	37.22
430.002	37.6
430.354	37.94
430.706	38.17
431.058	38.25
431.41	38.57
431.762	38.74
432.114	39.1
432.466	39.29
432.817	39.64
433.169	39.87
433.521	40.13
433.872	40.35
434.224	40.51
434.576	40.76
434.927	40.74
435.279	40.81
435.63	41.04
435.981	41.13
436.333	41.32
436.684	41.64
437.035	41.69
437.387	41.84
437.738	41.92
438.089	42.03
438.44	42.18
438.791	42.21
439.142	42.33
439.493	42.55
439.844	42.76
440.195	42.78
440.545	42.86
440.896	42.7
441.247	42.92
441.598	43
441.948	43.1
442.299	43.21
442.649	43.28
443	43.41
443.35	43.64
443.701	43.81
444.051	43.98
444.401	44.07
444.752	44.18
445.102	44.11
445.452	44.07
445.802	44.19
446.152	44.31
446.502	44.36
446.852	44.54
447.202	44.52
447.552	44.71
447.902	44.72
448.252	44.54
448.602	46
448.952	46.08
449.301	45.99
449.651	46.16
450.001	46.18
450.35	46.08
450.7	46.02
451.049	46
451.399	46.06
451.748	46.1
452.097	45.9
452.447	46.02
452.796	45.94
453.145	45.99
453.494	45.83
453.843	45.76
454.193	45.7
454.542	45.48
454.891	45.51
455.239	45.6
455.588	45.5
455.937	45.58
456.286	45.4
456.635	45.37
456.984	45.55
457.332	43.85
457.681	43.78
458.03	43.9
458.378	43.77
458.727	43.66
459.075	43.72
459.423	43.76
459.772	43.62
460.12	43.54
460.468	43.44
460.817	43.51
461.165	43.22
461.513	43.18
461.861	43.15
462.209	43.09
462.557	43.04
462.905	42.99
463.253	43
463.601	42.71
463.949	42.5
464.297	42.24
464.644	42.03
464.992	42.05
465.34	41.92
465.687	41.65
466.035	41.4
466.383	41.33
466.73	41.2
467.078	41.15
467.425	40.98
467.772	40.76
468.12	40.57
468.467	40.53
468.814	40.46
469.161	40.35
469.508	40.16
469.856	40.08
470.203	39.85
470.55	39.61
470.897	39.57
471.243	39.63
471.59	39.49
471.937	39.33
472.284	39.3
472.631	39.17
472.977	39.17
473.324	39.17
473.671	39.01
474.017	38.89
474.364	38.74
474.71	38.71
475.057	38.58
475.403	38.28
475.749	38.04
476.096	37.97
476.442	37.9
476.788	37.75
477.134	37.57
477.48	37.39
477.826	37.26
478.172	37.07
478.518	36.84
478.864	36.76
479.21	36.66
479.556	36.53
479.902	36.28
480.248	36.02
480.593	35.96
480.939	35.73
481.285	35.55
481.63	35.3
481.976	35.05
482.321	34.78
482.667	34.55
483.012	34.35
483.357	34.24
483.703	34.12
484.048	34.1
484.393	34
484.738	33.96
485.084	33.73
485.429	33.56
485.774	33.34
486.119	33.16
486.464	32.98
486.808	32.86
487.153	32.81
487.498	32.67
487.843	32.46
488.188	32.21
488.532	32.01
488.877	31.97
489.222	31.73
489.566	31.65
489.911	31.51
490.255	31.36
490.6	31.18
490.944	31.08
491.288	30.95
491.633	30.81
491.977	30.62
492.321	30.41
492.665	30.31
493.009	30.15
493.353	29.85
493.697	29.79
494.041	29.6
494.385	29.51
494.729	29.43
495.073	29.19
495.417	29
495.76	28.78
496.104	28.57
496.448	28.43
496.791	28.34
497.135	28.25
497.479	28
497.822	27.91
498.165	27.7
498.509	27.53
498.852	27.33
499.196	27.22
499.539	27.01
499.882	26.91
500.225	26.79
500.568	26.66
500.911	26.46
501.254	26.25
501.597	26.19
501.94	26.03
502.283	25.84
502.626	25.8
502.969	25.63
503.312	25.49
503.654	25.4
503.997	25.21
504.34	25.01
504.682	24.88
505.025	24.75
505.367	24.57
505.71	24.42
506.052	24.36
506.395	24.15
506.737	24.1
507.079	23.99
507.421	23.91
507.764	23.74
508.106	23.59
508.448	23.42
508.79	23.34
509.132	23.19
509.474	23.08
509.816	22.86
510.158	22.64
510.499	22.52
510.841	22.42
511.183	22.25
511.525	22.16
511.866	22.01
512.208	21.92
512.549	21.82
512.891	21.91
513.232	21.79
513.574	21.62
513.915	21.49
514.256	21.32
514.598	21.23
514.939	21.12
515.28	20.91
515.621	20.8
515.962	20.64
516.303	20.58
516.644	20.55
516.985	20.42
517.326	20.31
517.667	20.16
518.008	20.11
518.349	20.07
518.69	19.92
519.03	19.86
519.371	19.72
519.712	19.57
520.052	19.5
520.393	19.36
520.733	19.24
521.074	19.27
521.414	19.12
521.754	18.92
522.095	18.88
522.435	18.87
522.775	18.85
523.115	18.67
523.455	18.56
523.795	18.51
524.135	18.44
524.475	18.51
524.815	18.42
525.155	18.29
525.495	18.26
525.835	18.2
526.175	18.12
526.514	18.11
526.854	18.06
527.194	18.04
527.533	17.97
527.873	17.86
528.212	17.78
528.552	17.65
528.891	17.64
529.23	17.69
529.57	17.58
529.909	17.51
530.248	17.58
530.587	17.63
530.927	17.44
531.266	17.34
531.605	17.36
531.944	17.3
532.283	17.24
532.621	17.13
532.96	17.15
533.299	17.13
533.638	17.15
533.977	17.11
534.315	16.93
534.654	16.93
534.992	16.77
535.331	16.64
535.67	16.48
536.008	16.36
536.346	16.31
536.685	16.14
537.023	16.1
537.361	15.99
537.7	15.74
538.038	15.57
538.376	15.35
538.714	15.36
539.052	15.16
539.39	15.2
539.728	15.11
540.066	15.02
540.404	14.87
540.741	14.82
541.079	14.69
541.417	14.43
541.755	14.24
542.092	14.19
542.43	14.06
542.767	14.02
543.105	13.88
543.442	13.9
543.78	13.96
544.117	14.11
544.454	14.1
544.792	14.03
545.129	14.21
545.466	14.14
545.803	14.07
546.14	13.96
546.477	13.97
546.814	13.98
547.151	13.79
547.488	13.87
547.825	13.8
548.162	13.85
548.499	13.78
548.835	13.86
549.172	13.9
549.509	13.95
549.845	13.92
550.182	13.96
550.518	13.91
550.855	13.96
551.191	13.9
551.528	13.96
551.864	13.82
552.2	13.81
552.537	13.63
552.873	13.63
553.209	13.6
553.545	13.51
553.881	13.54
554.217	13.56
554.553	13.63
554.889	13.59
555.225	13.62
555.561	13.73
555.896	13.72
556.232	13.64
556.568	13.49
556.903	13.5
557.239	13.42
557.575	13.31
557.91	13.34
558.245	13.39
558.581	13.35
558.916	13.42
559.252	13.48
559.587	13.59
559.922	13.54
560.257	13.67
560.592	13.64
560.928	13.72
561.263	13.86
561.598	13.93
561.933	13.91
562.267	14.01
562.602	14.08
562.937	14.14
563.272	14.19
563.607	14.25
563.941	14.26
564.276	14.29
564.611	14.38
564.945	14.42
565.28	14.38
565.614	14.53
565.949	14.63
566.283	14.7
566.617	14.81
566.951	14.88
567.286	14.97
567.62	14.82
567.954	14.87
568.288	14.87
568.622	14.91
568.956	14.92
569.29	14.94
569.624	14.78
569.958	14.75
570.292	14.79
570.626	14.76
570.959	14.82
571.293	14.92
571.627	14.99
571.96	15.03
572.294	15.03
572.627	14.97
572.961	15
573.294	15.14
573.627	15.27
573.961	15.27
574.294	15.29
574.627	15.32
574.961	15.33
575.294	15.3
575.627	15.25
575.96	15.37
576.293	15.4
576.626	15.47
576.959	15.43
577.292	15.49
577.624	15.53
577.957	15.71
578.29	15.75
578.623	15.8
578.955	15.78
579.288	15.79
579.62	15.78
579.953	15.79
580.285	15.88
580.618	15.92
580.95	16
581.282	16.02
581.615	15.98
581.947	15.95
582.279	15.98
582.611	16.1
582.943	16.14
583.275	16.17
583.607	16.31
583.939	16.3
584.271	16.35
584.603	16.4
584.935	16.44
585.267	16.5
585.598	16.6
585.93	16.77
586.262	16.75
586.593	16.93
586.925	16.97
587.256	17.13
587.588	17.2
587.919	17.34
588.25	17.49
588.582	17.52
588.913	17.58
589.244	17.64
589.575	17.76
589.907	17.89
590.238	18.02
590.569	18.12
590.9	18.16
591.231	18.31
591.562	18.26
591.892	18.37
592.223	18.61
592.554	18.77
592.885	18.9
593.215	19.01
593.546	19.16
593.877	19.19
594.207	19.2
594.538	19.34
594.868	19.34
595.198	19.52
595.529	19.7
595.859	19.85
596.189	19.78
596.52	19.8
596.85	19.91
597.18	20.05
597.51	20.11
597.84	20.27
598.17	20.29
598.5	20.32
598.83	20.54
599.16	20.71
599.489	20.8
599.819	21.05
600.149	21.23
600.479	21.36
600.808	21.49
601.138	21.61
601.467	21.77
601.797	21.95
602.126	22.13
602.456	22.33
602.785	22.57
603.114	22.86
603.443	23.08
603.773	23.25
604.102	23.39
604.431	23.72
604.76	23.94
605.089	24.05
605.418	24.2
605.747	24.55
606.076	24.71
606.405	25
606.733	25.28
607.062	25.52
607.391	25.66
607.72	25.92
608.048	26.2
608.377	26.44
608.705	26.74
609.034	26.99
609.362	27.5
609.69	27.69
610.019	28.08
610.347	28.37
610.675	28.65
611.004	28.76
611.332	28.93
611.66	29.16
611.988	29.41
612.316	29.68
612.644	29.84
612.972	30.01
613.3	30.3
613.627	30.68
613.955	30.72
614.283	30.98
614.611	31.29
614.938	31.64
615.266	31.9
615.593	32.13
615.921	32.34
616.248	32.51
616.576	32.77
616.903	33.13
617.23	33.67
617.558	33.96
617.885	34.46
618.212	34.57
618.539	34.98
618.866	35.15
619.193	35.56
619.52	36.06
619.847	36.37
620.174	36.47
620.501	36.71
620.828	37.05
621.155	37.52
621.481	37.92
621.808	38.22
622.135	38.92
622.461	39.39
622.788	39.81
623.114	40
623.441	39.95
623.767	40.41
624.093	40.74
624.42	41.14
624.746	41.79
625.072	42.09
625.398	42.67
625.725	42.74
626.051	43.16
626.377	43.53
626.703	43.88
627.029	44.46
627.354	44.8
627.68	45.01
628.006	45.53
628.332	46.01
628.658	46.33
628.983	46.81
629.309	47.14
629.634	47.6
629.96	47.49
630.285	48.03
630.611	48.25
630.936	48.3
631.262	48.88
631.587	50.03
631.912	50.28
632.237	51.05
632.562	51.99
632.887	51.99
633.213	52
633.538	51.82
633.863	51.79
634.187	52.21
634.512	53.19
634.837	53.33
635.162	53.11
635.487	52.94
635.811	53.19
636.136	53.21
636.461	53.52
636.785	53.59
637.11	53.49
637.434	53.77
637.758	53.6
638.083	54.34
638.407	54.05
638.731	54.26
639.056	54.82
639.38	54.82
639.704	54.83
640.028	55.79
640.352	55.57
640.676	55.49
641	55.46
641.324	55.74
641.648	55.9
641.972	56.64
642.295	56.89
642.619	56.89
642.943	56.72
643.266	57.37
643.59	57.91
643.913	58.07
644.237	58.37
644.56	58.16
644.884	58.1
645.207	58.56
645.53	58.88
645.854	58.65
646.177	58.53
646.5	58.89
646.823	58.81
647.146	58.75
647.469	58.62
647.792	58.44
648.115	58.3
648.438	59.05
648.761	60.65
649.084	62
649.406	62.71
649.729	61.38
650.052	61.14
650.374	61.06
650.697	60.79
651.019	60.87
651.342	60.83
651.664	60.96
651.987	61.06
652.309	61.15
652.631	61.49
652.953	61.67
653.276	61.73
653.598	61.67
653.92	61.92
