Data from T1_Reflection__118__23-53-29-089.txt Node

Date: Wed Jun 02 23:53:29 CEST 2021
User: mabdelazizm
Spectrometer: FLMS18565
Trigger mode: 0
Integration Time (sec): 2.000000E0
Scans to average: 1
Electric dark correction enabled: true
Nonlinearity correction enabled: false
Boxcar width: 12
XAxis mode: Wavelengths
Number of Pixels in Spectrum: 2048
>>>>>Begin Spectral Data<<<<<
179.071	120.86
179.452	213.04
179.833	144.36
180.214	109.09
180.595	400.93
180.977	316.26
181.358	170.5
181.739	339.22
182.12	111.53
182.501	155.25
182.882	182.59
183.262	149.52
183.643	85.48
184.024	56.23
184.405	42.43
184.786	33.5
185.166	26.32
185.547	29.97
185.927	21.5
186.308	18.9
186.689	28.87
187.069	23.5
187.449	18.84
187.83	16.02
188.21	16.49
188.59	14.09
188.971	14.77
189.351	14.2
189.731	15.56
190.111	16.46
190.491	16.32
190.871	15.96
191.251	15.98
191.631	16.58
192.011	15.72
192.391	13.8
192.771	15.14
193.151	13.19
193.531	12.52
193.91	13.02
194.29	13.34
194.67	12.99
195.049	10.58
195.429	12.59
195.808	12.61
196.188	11.57
196.567	12
196.946	11.66
197.326	11.27
197.705	10.53
198.084	10.48
198.464	10.9
198.843	10.66
199.222	10.66
199.601	10.33
199.98	9.62
200.359	11
200.738	11.3
201.117	12.16
201.496	12.2
201.875	11.09
202.254	10.88
202.632	11.57
203.011	11.52
203.39	11.39
203.768	11.06
204.147	12.09
204.525	12.35
204.904	11.82
205.282	11.81
205.661	10.84
206.039	11.27
206.418	12.03
206.796	13
207.174	13.61
207.552	14.11
207.931	13.57
208.309	13.74
208.687	13.25
209.065	14.77
209.443	14.88
209.821	13.61
210.199	12.38
210.577	10.94
210.954	10.62
211.332	10.87
211.71	11.15
212.088	11.1
212.465	9.97
212.843	9.44
213.221	8.98
213.598	9.13
213.976	8.63
214.353	8.41
214.731	8.65
215.108	9.58
215.485	8.44
215.863	6.85
216.24	6.44
216.617	6.36
216.994	5.92
217.371	5.5
217.749	5.71
218.126	5.73
218.503	4.64
218.88	3.99
219.256	4.3
219.633	4.41
220.01	5.23
220.387	5.72
220.764	5.36
221.14	4.87
221.517	4.92
221.894	5.22
222.27	5.64
222.647	5.79
223.023	5.19
223.4	5.51
223.776	5.96
224.153	5.63
224.529	5.37
224.905	6.05
225.282	6.34
225.658	6.23
226.034	6.01
226.41	6.06
226.786	6.13
227.162	5.79
227.538	5.83
227.914	5.85
228.29	5.82
228.666	5.38
229.042	5.37
229.418	5.03
229.793	4.85
230.169	5.05
230.545	5.13
230.92	5.05
231.296	4.98
231.672	4.99
232.047	4.84
232.422	4.87
232.798	4.7
233.173	4.47
233.549	4.5
233.924	4.34
234.299	4.05
234.674	4.08
235.05	4.01
235.425	4.1
235.8	4
236.175	3.85
236.55	3.86
236.925	3.79
237.3	3.8
237.675	3.77
238.049	3.89
238.424	3.94
238.799	4.01
239.174	4.05
239.548	3.88
239.923	3.83
240.297	3.86
240.672	3.9
241.046	3.82
241.421	3.87
241.795	3.79
242.17	3.8
242.544	3.7
242.918	3.73
243.293	3.83
243.667	3.88
244.041	3.84
244.415	3.85
244.789	3.74
245.163	3.8
245.537	3.86
245.911	3.85
246.285	3.82
246.659	3.83
247.033	3.87
247.406	3.86
247.78	3.78
248.154	3.73
248.528	3.68
248.901	3.68
249.275	3.73
249.648	3.69
250.022	3.69
250.395	3.7
250.769	3.67
251.142	3.72
251.515	3.69
251.888	3.69
252.262	3.61
252.635	3.5
253.008	3.5
253.381	3.44
253.754	3.45
254.127	3.51
254.5	3.44
254.873	3.32
255.246	3.34
255.619	3.38
255.992	3.33
256.364	3.34
256.737	3.33
257.11	3.4
257.483	3.37
257.855	3.33
258.228	3.32
258.6	3.28
258.973	3.32
259.345	3.32
259.718	3.25
260.09	3.24
260.462	3.23
260.834	3.2
261.207	3.24
261.579	3.3
261.951	3.33
262.323	3.26
262.695	3.25
263.067	3.23
263.439	3.18
263.811	3.23
264.183	3.25
264.555	3.19
264.927	3.14
265.298	3.11
265.67	3.03
266.042	2.98
266.413	2.93
266.785	2.91
267.156	2.91
267.528	2.89
267.899	2.86
268.271	2.77
268.642	2.75
269.013	2.74
269.385	2.77
269.756	2.74
270.127	2.73
270.498	2.67
270.87	2.63
271.241	2.61
271.612	2.62
271.983	2.61
272.354	2.61
272.724	2.62
273.095	2.64
273.466	2.63
273.837	2.68
274.208	2.63
274.578	2.61
274.949	2.67
275.32	2.66
275.69	2.66
276.061	2.64
276.431	2.61
276.802	2.63
277.172	2.62
277.542	2.61
277.913	2.57
278.283	2.58
278.653	2.5
279.023	2.49
279.394	2.48
279.764	2.47
280.134	2.47
280.504	2.52
280.874	2.46
281.244	2.41
281.614	2.35
281.983	2.38
282.353	2.3
282.723	2.34
283.093	2.29
283.462	2.33
283.832	2.37
284.202	2.36
284.571	2.36
284.941	2.35
285.31	2.38
285.68	2.42
286.049	2.33
286.418	2.32
286.788	2.38
287.157	2.38
287.526	2.36
287.895	2.4
288.264	2.43
288.633	2.46
289.002	2.49
289.371	2.48
289.74	2.38
290.109	2.38
290.478	2.4
290.847	2.4
291.216	2.37
291.585	2.34
291.953	2.26
292.322	2.29
292.691	2.27
293.059	2.2
293.428	2.08
293.796	2.1
294.165	2.07
294.533	2.03
294.901	2.04
295.27	2.13
295.638	2.07
296.006	2
296.374	1.99
296.743	1.99
297.111	2
297.479	1.91
297.847	1.89
298.215	1.81
298.583	1.79
298.95	1.82
299.318	1.83
299.686	1.83
300.054	1.86
300.422	1.83
300.789	1.9
301.157	1.91
301.525	1.9
301.892	1.9
302.26	1.94
302.627	2.03
302.994	1.99
303.362	1.94
303.729	1.95
304.097	1.88
304.464	1.83
304.831	1.88
305.198	1.84
305.565	1.83
305.932	1.76
306.299	1.75
306.666	1.78
307.033	1.75
307.4	1.78
307.767	1.72
308.134	1.73
308.501	1.73
308.867	1.74
309.234	1.71
309.601	1.67
309.967	1.65
310.334	1.67
310.701	1.6
311.067	1.56
311.433	1.54
311.8	1.52
312.166	1.52
312.533	1.65
312.899	1.64
313.265	1.72
313.631	1.74
313.997	1.72
314.363	1.69
314.729	1.68
315.096	1.71
315.461	1.7
315.827	1.64
316.193	1.67
316.559	1.68
316.925	1.73
317.291	1.75
317.656	1.77
318.022	1.76
318.388	1.74
318.753	1.78
319.119	1.73
319.484	1.68
319.85	1.69
320.215	1.68
320.581	1.69
320.946	1.64
321.311	1.66
321.676	1.53
322.042	1.55
322.407	1.51
322.772	1.54
323.137	1.56
323.502	1.59
323.867	1.59
324.232	1.61
324.597	1.62
324.962	1.72
325.327	1.73
325.691	1.72
326.056	1.76
326.421	1.7
326.785	1.66
327.15	1.64
327.514	1.62
327.879	1.58
328.243	1.58
328.608	1.63
328.972	1.69
329.337	1.71
329.701	1.73
330.065	1.81
330.429	1.77
330.794	1.75
331.158	1.75
331.522	1.7
331.886	1.67
332.25	1.58
332.614	1.62
332.978	1.67
333.342	1.68
333.705	1.65
334.069	1.56
334.433	1.57
334.797	1.6
335.16	1.58
335.524	1.6
335.887	1.62
336.251	1.65
336.614	1.68
336.978	1.71
337.341	1.73
337.705	1.69
338.068	1.7
338.431	1.71
338.794	1.67
339.158	1.59
339.521	1.63
339.884	1.63
340.247	1.62
340.61	1.67
340.973	1.67
341.336	1.77
341.699	1.83
342.062	1.78
342.424	1.75
342.787	1.73
343.15	1.76
343.512	1.7
343.875	1.64
344.238	1.56
344.6	1.56
344.963	1.56
345.325	1.55
345.688	1.54
346.05	1.55
346.412	1.49
346.775	1.53
347.137	1.52
347.499	1.55
347.861	1.61
348.223	1.6
348.585	1.56
348.947	1.64
349.309	1.6
349.671	1.58
350.033	1.56
350.395	1.5
350.757	1.43
351.118	1.5
351.48	1.52
351.842	1.51
352.203	1.46
352.565	1.51
352.927	1.6
353.288	1.66
353.65	1.62
354.011	1.58
354.372	1.58
354.734	1.59
355.095	1.61
355.456	1.64
355.817	1.66
356.179	1.62
356.54	1.58
356.901	1.49
357.262	1.49
357.623	1.46
357.984	1.45
358.345	1.5
358.705	1.45
359.066	1.42
359.427	1.46
359.788	1.5
360.148	1.46
360.509	1.38
360.87	1.41
361.23	1.4
361.591	1.42
361.951	1.4
362.312	1.44
362.672	1.44
363.032	1.44
363.393	1.54
363.753	1.52
364.113	1.47
364.473	1.54
364.833	1.58
365.193	1.58
365.553	1.59
365.913	1.62
366.273	1.7
366.633	1.79
366.993	1.72
367.353	1.75
367.713	1.82
368.072	1.83
368.432	1.79
368.792	1.81
369.151	1.81
369.511	1.87
369.87	1.88
370.23	2
370.589	1.97
370.949	1.96
371.308	1.88
371.667	1.97
372.027	2.06
372.386	1.94
372.745	1.95
373.104	1.98
373.463	1.97
373.822	1.98
374.181	2.06
374.54	2.03
374.899	1.98
375.258	1.94
375.617	1.92
375.975	2.03
376.334	2
376.693	2.02
377.052	2.04
377.41	2.07
377.769	2.08
378.127	2.04
378.486	2.11
378.844	2.16
379.202	2.13
379.561	2.15
379.919	2.2
380.277	2.26
380.636	2.33
380.994	2.35
381.352	2.41
381.71	2.5
382.068	2.62
382.426	2.67
382.784	2.71
383.142	2.86
383.5	3.02
383.857	3.28
384.215	3.31
384.573	3.38
384.931	3.46
385.288	3.63
385.646	3.7
386.003	3.89
386.361	4.09
386.718	4.22
387.076	4.43
387.433	4.63
387.791	4.79
388.148	5.02
388.505	5.27
388.862	5.43
389.22	5.74
389.577	5.96
389.934	6.24
390.291	6.49
390.648	6.71
391.005	6.97
391.362	7.29
391.718	7.65
392.075	7.82
392.432	8.12
392.789	8.39
393.145	8.85
393.502	9.18
393.859	9.51
394.215	10.02
394.572	10.4
394.928	10.79
395.285	11.13
395.641	11.5
395.997	11.9
396.354	12.37
396.71	12.8
397.066	13.25
397.422	13.71
397.778	14.28
398.134	14.64
398.491	15.09
398.846	15.52
399.202	16.05
399.558	16.6
399.914	17.03
400.27	17.43
400.626	17.84
400.981	18.31
401.337	18.77
401.693	19.26
402.048	19.82
402.404	20.46
402.759	21.02
403.115	21.32
403.47	21.94
403.826	22.47
404.181	23.03
404.536	23.65
404.892	24.21
405.247	24.66
405.602	25.25
405.957	25.72
406.312	26.29
406.667	26.7
407.022	27.33
407.377	27.86
407.732	28.42
408.087	28.99
408.442	29.48
408.796	29.96
409.151	30.68
409.506	31.37
409.86	31.9
410.215	32.46
410.57	33.03
410.924	33.48
411.279	33.86
411.633	34.46
411.987	35.06
412.342	35.44
412.696	35.88
413.05	36.45
413.404	36.89
413.758	37.54
414.113	37.97
414.467	38.48
414.821	38.96
415.175	39.3
415.529	39.66
415.882	40.09
416.236	40.51
416.59	40.87
416.944	41.15
417.298	41.56
417.651	41.85
418.005	41.93
418.358	42.2
418.712	42.55
419.065	42.9
419.419	43.12
419.772	43.36
420.126	43.73
420.479	43.92
420.832	44.08
421.185	44.28
421.539	44.53
421.892	44.65
422.245	44.87
422.598	44.96
422.951	45.31
423.304	45.4
423.657	45.54
424.01	45.88
424.363	46.1
424.715	46.22
425.068	46.29
425.421	46.42
425.773	46.56
426.126	46.69
426.479	47.01
426.831	47.22
427.184	47.31
427.536	47.47
427.889	47.5
428.241	47.64
428.593	47.8
428.945	47.96
429.298	48.01
429.65	48.26
430.002	48.54
430.354	48.68
430.706	48.76
431.058	48.84
431.41	48.89
431.762	48.9
432.114	49.04
432.466	49.1
432.817	49.09
433.169	49.31
433.521	49.47
433.872	49.59
434.224	49.63
434.576	49.75
434.927	49.84
435.279	49.9
435.63	50.09
435.981	50.19
436.333	50.25
436.684	50.45
437.035	50.51
437.387	50.55
437.738	50.51
438.089	50.51
438.44	50.57
438.791	50.55
439.142	50.6
439.493	50.89
439.844	50.89
440.195	50.95
440.545	50.93
440.896	50.93
441.247	51.1
441.598	51.08
441.948	51.12
442.299	51.05
442.649	51.11
443	51.24
443.35	51.21
443.701	51.34
444.051	51.33
444.401	51.27
444.752	51.26
445.102	51.3
445.452	51.24
445.802	51.28
446.152	51.26
446.502	51.31
446.852	51.52
447.202	51.44
447.552	51.48
447.902	51.43
448.252	51.3
448.602	51.48
448.952	51.44
449.301	51.48
449.651	51.52
450.001	51.52
450.35	51.55
450.7	51.49
451.049	51.56
451.399	51.56
451.748	51.57
452.097	51.63
452.447	51.57
452.796	51.39
453.145	51.45
453.494	51.35
453.843	51.27
454.193	51.21
454.542	51.08
454.891	51.14
455.239	51.13
455.588	51.09
455.937	51.18
456.286	51.11
456.635	51.22
456.984	51.24
457.332	51
457.681	50.99
458.03	50.94
458.378	50.94
458.727	50.82
459.075	50.99
459.423	50.87
459.772	50.9
460.12	50.84
460.468	50.8
460.817	50.81
461.165	50.72
461.513	50.8
461.861	50.8
462.209	50.77
462.557	50.62
462.905	50.59
463.253	50.63
463.601	50.45
463.949	50.33
464.297	50.16
464.644	49.96
464.992	49.89
465.34	49.74
465.687	49.58
466.035	49.48
466.383	49.43
466.73	49.47
467.078	49.37
467.425	49.2
467.772	48.96
468.12	48.89
468.467	48.77
468.814	48.85
469.161	48.81
469.508	48.68
469.856	48.62
470.203	48.4
470.55	48.25
470.897	48.22
471.243	48.23
471.59	48.08
471.937	48.04
472.284	48.04
472.631	47.94
472.977	47.9
473.324	47.74
473.671	47.74
474.017	47.67
474.364	47.55
474.71	47.42
475.057	47.32
475.403	47.03
475.749	46.86
476.096	46.79
476.442	46.58
476.788	46.55
477.134	46.42
477.48	46.15
477.826	46.06
478.172	45.83
478.518	45.68
478.864	45.63
479.21	45.55
479.556	45.49
479.902	45.34
480.248	45.2
480.593	45.02
480.939	44.91
481.285	44.88
481.63	44.67
481.976	44.56
482.321	44.23
482.667	44.02
483.012	43.78
483.357	43.64
483.703	43.47
484.048	43.48
484.393	43.27
484.738	43.22
485.084	43.17
485.429	43.03
485.774	42.94
486.119	42.91
486.464	42.75
486.808	42.68
487.153	42.57
487.498	42.42
487.843	42.18
488.188	41.88
488.532	41.67
488.877	41.5
489.222	41.36
489.566	41.13
489.911	40.89
490.255	40.73
490.6	40.63
490.944	40.58
491.288	40.47
491.633	40.4
491.977	40.32
492.321	40.23
492.665	40.03
493.009	39.92
493.353	39.64
493.697	39.45
494.041	39.17
494.385	39.09
494.729	38.82
495.073	38.58
495.417	38.38
495.76	38.15
496.104	38.03
496.448	37.88
496.791	37.76
497.135	37.68
497.479	37.58
497.822	37.36
498.165	37.21
498.509	37.1
498.852	36.9
499.196	36.68
499.539	36.52
499.882	36.38
500.225	36.23
500.568	36.13
500.911	35.84
501.254	35.72
501.597	35.63
501.94	35.54
502.283	35.43
502.626	35.39
502.969	35.17
503.312	35.16
503.654	35.09
503.997	34.98
504.34	34.87
504.682	34.7
505.025	34.6
505.367	34.4
505.71	34.24
506.052	34.03
506.395	34
506.737	33.95
507.079	33.8
507.421	33.81
507.764	33.71
508.106	33.49
508.448	33.38
508.79	33.27
509.132	33.09
509.474	33.12
509.816	32.89
510.158	32.7
510.499	32.56
510.841	32.44
511.183	32.26
511.525	32.21
511.866	32
512.208	31.83
512.549	31.67
512.891	31.59
513.232	31.55
513.574	31.48
513.915	31.44
514.256	31.22
514.598	31.26
514.939	31.11
515.28	31
515.621	30.92
515.962	30.77
516.303	30.67
516.644	30.67
516.985	30.57
517.326	30.47
517.667	30.49
518.008	30.31
518.349	30.35
518.69	30.26
519.03	30.14
519.371	30.01
519.712	30.02
520.052	29.9
520.393	29.88
520.733	29.75
521.074	29.78
521.414	29.74
521.754	29.47
522.095	29.35
522.435	29.28
522.775	29.38
523.115	29.22
523.455	29.02
523.795	28.89
524.135	28.71
524.475	28.58
524.815	28.5
525.155	28.37
525.495	28.22
525.835	28.16
526.175	28.02
526.514	27.91
526.854	27.75
527.194	27.79
527.533	27.77
527.873	27.75
528.212	27.63
528.552	27.42
528.891	27.31
529.23	27.31
529.57	27.23
529.909	27.17
530.248	27.28
530.587	27.2
530.927	27.12
531.266	27.01
531.605	26.93
531.944	26.9
532.283	26.76
532.621	26.72
532.96	26.72
533.299	26.64
533.638	26.68
533.977	26.74
534.315	26.67
534.654	26.64
534.992	26.57
535.331	26.49
535.67	26.32
536.008	26.2
536.346	26.06
536.685	25.89
537.023	25.8
537.361	25.72
537.7	25.61
538.038	25.46
538.376	25.31
538.714	25.31
539.052	25.14
539.39	25.12
539.728	25.08
540.066	25.04
540.404	24.99
540.741	24.96
541.079	24.84
541.417	24.61
541.755	24.44
542.092	24.32
542.43	24.2
542.767	24.07
543.105	23.93
543.442	23.98
543.78	23.91
544.117	24.03
544.454	24.02
544.792	24.03
545.129	24.1
545.466	23.98
545.803	23.88
546.14	23.79
546.477	23.74
546.814	23.58
547.151	23.35
547.488	23.42
547.825	23.35
548.162	23.27
548.499	23.19
548.835	23.12
549.172	23.05
549.509	23.03
549.845	23.07
550.182	23.14
550.518	23.12
550.855	23.11
551.191	23.06
551.528	23.04
551.864	22.87
552.2	22.86
552.537	22.77
552.873	22.76
553.209	22.66
553.545	22.62
553.881	22.69
554.217	22.58
554.553	22.67
554.889	22.59
555.225	22.67
555.561	22.87
555.896	22.77
556.232	22.66
556.568	22.66
556.903	22.75
557.239	22.77
557.575	22.8
557.91	22.96
558.245	23.14
558.581	23.19
558.916	23.21
559.252	23.25
559.587	23.28
559.922	23.28
560.257	23.37
560.592	23.47
560.928	23.46
561.263	23.71
561.598	23.76
561.933	23.76
562.267	23.95
562.602	24.04
562.937	24.12
563.272	24.3
563.607	24.42
563.941	24.36
564.276	24.28
564.611	24.53
564.945	24.59
565.28	24.51
565.614	24.52
565.949	24.6
566.283	24.54
566.617	24.54
566.951	24.43
567.286	24.58
567.62	24.55
567.954	24.71
568.288	24.9
568.622	24.96
568.956	24.92
569.29	24.94
569.624	24.78
569.958	24.86
570.292	24.9
570.626	24.9
570.959	25.06
571.293	25.18
571.627	25.24
571.96	25.23
572.294	25.23
572.627	25.34
572.961	25.27
573.294	25.28
573.627	25.39
573.961	25.49
574.294	25.64
574.627	25.77
574.961	25.81
575.294	25.87
575.627	25.77
575.96	25.83
576.293	25.8
576.626	25.76
576.959	25.8
577.292	25.94
577.624	26.07
577.957	26.2
578.29	26.2
578.623	26.33
578.955	26.32
579.288	26.34
579.62	26.29
579.953	26.32
580.285	26.39
580.618	26.45
580.95	26.56
581.282	26.64
581.615	26.7
581.947	26.75
582.279	26.8
582.611	26.76
582.943	26.76
583.275	26.88
583.607	27.08
583.939	27.24
584.271	27.29
584.603	27.44
584.935	27.49
585.267	27.5
585.598	27.56
585.93	27.63
586.262	27.73
586.593	27.9
586.925	27.85
587.256	27.91
587.588	28.02
587.919	28.14
588.25	28.3
588.582	28.44
588.913	28.6
589.244	28.65
589.575	28.95
589.907	29.05
590.238	29.17
590.569	29.34
590.9	29.54
591.231	29.75
591.562	29.73
591.892	29.84
592.223	30
592.554	30.18
592.885	30.32
593.215	30.43
593.546	30.53
593.877	30.5
594.207	30.49
594.538	30.54
594.868	30.64
595.198	30.84
595.529	31.08
595.859	31.21
596.189	31.31
596.52	31.31
596.85	31.5
597.18	31.69
597.51	31.86
597.84	31.77
598.17	31.84
598.5	31.95
598.83	32.11
599.16	32.31
599.489	32.41
599.819	32.56
600.149	32.65
600.479	32.83
600.808	33
601.138	33.08
601.467	33.29
601.797	33.47
602.126	33.74
602.456	34.05
602.785	34.26
603.114	34.56
603.443	34.81
603.773	35.07
604.102	35.22
604.431	35.44
604.76	35.69
605.089	35.85
605.418	35.94
605.747	36.2
606.076	36.37
606.405	36.59
606.733	36.8
607.062	37.14
607.391	37.23
607.72	37.46
608.048	37.81
608.377	38.03
608.705	38.33
609.034	38.56
609.362	38.87
609.69	39.12
610.019	39.62
610.347	39.8
610.675	40.03
611.004	40.24
611.332	40.43
611.66	40.67
611.988	40.74
612.316	40.8
612.644	41.12
612.972	41.38
613.3	41.55
613.627	41.97
613.955	42.05
614.283	42.49
614.611	42.94
614.938	43.25
615.266	43.42
615.593	43.7
615.921	43.92
616.248	43.86
616.576	44.31
616.903	44.56
617.23	45.27
617.558	45.86
617.885	46.26
618.212	46.45
618.539	46.91
618.866	47.16
619.193	47.52
619.52	47.52
619.847	47.67
620.174	48.02
620.501	48.59
620.828	48.9
621.155	49.05
621.481	49.38
621.808	49.45
622.135	49.81
622.461	49.99
622.788	50.34
623.114	50.53
623.441	50.58
623.767	50.81
624.093	51.19
624.42	52.02
624.746	52.62
625.072	53.09
625.398	53.49
625.725	53.75
626.051	54.15
626.377	54.73
626.703	55.29
627.029	55.71
627.354	56.13
627.68	56.88
628.006	57.52
628.332	58.02
628.658	57.96
628.983	57.77
629.309	58.42
629.634	58.94
629.96	58.79
630.285	59.45
630.611	59.56
630.936	59.47
631.262	60.06
631.587	60.49
631.912	60.47
632.237	61.32
632.562	61.98
632.887	61.92
633.213	61.92
633.538	61.83
633.863	61.37
634.187	61.31
634.512	61.41
634.837	61.05
635.162	61.01
635.487	60.84
635.811	60.93
636.136	61.4
636.461	61.7
636.785	62.04
637.11	62.75
637.434	62.61
637.758	62.24
638.083	62.74
638.407	62.71
638.731	63.49
639.056	63.96
639.38	63.97
639.704	63.85
640.028	65.07
640.352	64.6
640.676	64.34
641	63.92
641.324	63.62
641.648	63.56
641.972	64.55
642.295	64.82
642.619	64.84
642.943	65.29
643.266	65.38
643.59	65.69
643.913	65.68
644.237	65.41
644.56	65.25
644.884	65.81
645.207	65.23
645.53	65.42
645.854	65.96
646.177	66.11
646.5	66.47
646.823	66.28
647.146	66.4
647.469	66.17
647.792	66.58
648.115	66.44
648.438	66.82
648.761	67.58
649.084	68.02
649.406	67.76
649.729	66.17
650.052	65.44
650.374	65.19
650.697	64.9
651.019	64.82
651.342	64.88
651.664	64.81
651.987	64.77
652.309	64.81
652.631	65.11
652.953	65.13
653.276	65.41
653.598	65.41
653.92	65.36
654.242	65.61
654.564	65.66
654.886	65.68
655.208	65.49
655.53	65.54
655.851	65.43
656.173	65.42
656.495	65.32
656.816	64.86
657.138	64.64
657.46	64.61
657.781	66.56
658.103	68.74
