Data from T1_Reflection__145__00-11-57-054.txt Node

Date: Thu Jun 03 00:11:57 CEST 2021
User: mabdelazizm
Spectrometer: FLMS18565
Trigger mode: 0
Integration Time (sec): 2.000000E0
Scans to average: 1
Electric dark correction enabled: true
Nonlinearity correction enabled: false
Boxcar width: 12
XAxis mode: Wavelengths
Number of Pixels in Spectrum: 2048
>>>>>Begin Spectral Data<<<<<
179.071	-133.25
179.452	-291.7
179.833	-220.28
180.214	-189.09
180.595	-2114.02
180.977	-830.89
181.358	-434.05
181.739	-850.98
182.12	-301.79
182.501	-268.48
182.882	-136.32
183.262	-276.19
183.643	-99.3
184.024	-27.98
184.405	-16.14
184.786	-2.75
185.166	-1.76
185.547	-1
185.927	-10.48
186.308	4.3
186.689	9.45
187.069	12.07
187.449	12.79
187.83	9.92
188.21	5.7
188.59	4.26
188.971	7.03
189.351	5.69
189.731	5.64
190.111	6.79
190.491	7.11
190.871	6.06
191.251	6.45
191.631	5.87
192.011	6.14
192.391	4.76
192.771	8.49
193.151	7.09
193.531	7.14
193.91	8.58
194.29	7.94
194.67	5.63
195.049	4.37
195.429	5.42
195.808	3.69
196.188	2.31
196.567	0.87
196.946	0.9
197.326	0.78
197.705	0.77
198.084	0.35
198.464	0.73
198.843	2.46
199.222	1.85
199.601	3.04
199.98	3.41
200.359	3.37
200.738	4.64
201.117	5.5
201.496	5.18
201.875	5.47
202.254	4.5
202.632	5.03
203.011	4.08
203.39	3.47
203.768	3.2
204.147	5.52
204.525	5.3
204.904	5.45
205.282	5.11
205.661	4.53
206.039	4.97
206.418	4.65
206.796	5.49
207.174	5.61
207.552	6.64
207.931	6.35
208.309	6.73
208.687	6.75
209.065	6.66
209.443	5.31
209.821	5.2
210.199	4.41
210.577	3.03
210.954	2.59
211.332	3.66
211.71	3.09
212.088	3.13
212.465	3.27
212.843	3.42
213.221	4.15
213.598	4.01
213.976	3.92
214.353	4.07
214.731	4.41
215.108	5.16
215.485	4.46
215.863	4.59
216.24	4.55
216.617	4.85
216.994	4.38
217.371	4.18
217.749	3.75
218.126	3.92
218.503	3.59
218.88	3.74
219.256	3.61
219.633	3.37
220.01	4.36
220.387	5.13
220.764	4.76
221.14	4.85
221.517	4.39
221.894	4.73
222.27	5.35
222.647	5.35
223.023	4.68
223.4	5.06
223.776	5.19
224.153	4.96
224.529	4.69
224.905	5.42
225.282	5.47
225.658	5.16
226.034	5.09
226.41	5.16
226.786	5.34
227.162	5.21
227.538	5.3
227.914	5.35
228.29	5.22
228.666	5.02
229.042	4.93
229.418	4.64
229.793	4.4
230.169	4.53
230.545	4.69
230.92	4.75
231.296	4.52
231.672	4.38
232.047	4.23
232.422	4.29
232.798	4.26
233.173	4.13
233.549	4.19
233.924	4.32
234.299	4.05
234.674	4.06
235.05	4.11
235.425	4.18
235.8	4.08
236.175	3.97
236.55	3.96
236.925	3.94
237.3	3.98
237.675	3.99
238.049	4.06
238.424	4.17
238.799	4.3
239.174	4.34
239.548	4.31
239.923	4.18
240.297	4.13
240.672	4.2
241.046	4.05
241.421	4.03
241.795	4.07
242.17	4.04
242.544	3.97
242.918	3.97
243.293	3.95
243.667	3.95
244.041	3.89
244.415	3.89
244.789	3.85
245.163	3.87
245.537	3.91
245.911	3.89
246.285	3.88
246.659	3.87
247.033	3.88
247.406	3.95
247.78	3.93
248.154	3.86
248.528	3.8
248.901	3.73
249.275	3.86
249.648	3.93
250.022	3.95
250.395	4.02
250.769	4.07
251.142	4.1
251.515	4.09
251.888	4.15
252.262	4.15
252.635	4.11
253.008	4.15
253.381	4.14
253.754	4.11
254.127	4.15
254.5	4.12
254.873	4.03
255.246	4.03
255.619	4.07
255.992	3.99
256.364	4.02
256.737	3.99
257.11	3.97
257.483	3.92
257.855	3.95
258.228	3.92
258.6	3.83
258.973	3.82
259.345	3.85
259.718	3.81
260.09	3.8
260.462	3.72
260.834	3.68
261.207	3.67
261.579	3.67
261.951	3.66
262.323	3.64
262.695	3.66
263.067	3.64
263.439	3.62
263.811	3.65
264.183	3.61
264.555	3.59
264.927	3.55
265.298	3.57
265.67	3.53
266.042	3.48
266.413	3.45
266.785	3.41
267.156	3.34
267.528	3.34
267.899	3.3
268.271	3.29
268.642	3.2
269.013	3.18
269.385	3.2
269.756	3.23
270.127	3.22
270.498	3.2
270.87	3.12
271.241	3.08
271.612	3.04
271.983	3.02
272.354	3.03
272.724	2.98
273.095	3.01
273.466	3.05
273.837	3.08
274.208	3.02
274.578	2.97
274.949	3.02
275.32	3.01
275.69	2.97
276.061	2.96
276.431	2.97
276.802	2.94
277.172	2.94
277.542	2.9
277.913	2.87
278.283	2.9
278.653	2.78
279.023	2.76
279.394	2.77
279.764	2.73
280.134	2.77
280.504	2.82
280.874	2.81
281.244	2.71
281.614	2.66
281.983	2.68
282.353	2.63
282.723	2.66
283.093	2.63
283.462	2.61
283.832	2.62
284.202	2.58
284.571	2.54
284.941	2.51
285.31	2.56
285.68	2.61
286.049	2.62
286.418	2.6
286.788	2.69
287.157	2.66
287.526	2.58
287.895	2.62
288.264	2.59
288.633	2.53
289.002	2.52
289.371	2.5
289.74	2.44
290.109	2.44
290.478	2.48
290.847	2.53
291.216	2.52
291.585	2.45
291.953	2.39
292.322	2.38
292.691	2.38
293.059	2.38
293.428	2.3
293.796	2.31
294.165	2.33
294.533	2.25
294.901	2.2
295.27	2.2
295.638	2.23
296.006	2.12
296.374	2.13
296.743	2.14
297.111	2.17
297.479	2.14
297.847	2.18
298.215	2.18
298.583	2.15
298.95	2.11
299.318	2.11
299.686	2.1
300.054	2.04
300.422	2.01
300.789	2.1
301.157	2.06
301.525	2.03
301.892	2.06
302.26	2.07
302.627	2.11
302.994	2.1
303.362	2.05
303.729	2.06
304.097	2.03
304.464	2.02
304.831	1.98
305.198	1.95
305.565	1.97
305.932	1.95
306.299	1.96
306.666	1.99
307.033	1.97
307.4	1.99
307.767	1.99
308.134	2.04
308.501	2.02
308.867	1.94
309.234	1.99
309.601	1.97
309.967	1.96
310.334	2
310.701	1.96
311.067	1.91
311.433	1.88
311.8	1.89
312.166	1.89
312.533	1.96
312.899	1.95
313.265	1.95
313.631	1.91
313.997	1.94
314.363	1.9
314.729	1.89
315.096	1.86
315.461	1.86
315.827	1.87
316.193	1.87
316.559	1.88
316.925	1.88
317.291	1.88
317.656	1.91
318.022	2.02
318.388	1.94
318.753	1.93
319.119	1.83
319.484	1.81
319.85	1.85
320.215	1.88
320.581	1.88
320.946	1.83
321.311	1.8
321.676	1.76
322.042	1.82
322.407	1.84
322.772	1.88
323.137	1.88
323.502	1.91
323.867	1.93
324.232	1.99
324.597	1.96
324.962	1.95
325.327	1.9
325.691	1.92
326.056	1.95
326.421	1.91
326.785	1.88
327.15	1.79
327.514	1.79
327.879	1.78
328.243	1.85
328.608	1.86
328.972	1.88
329.337	1.91
329.701	1.88
330.065	1.95
330.429	1.91
330.794	1.89
331.158	1.87
331.522	1.82
331.886	1.83
332.25	1.72
332.614	1.71
332.978	1.69
333.342	1.69
333.705	1.66
334.069	1.65
334.433	1.71
334.797	1.61
335.16	1.57
335.524	1.57
335.887	1.62
336.251	1.66
336.614	1.72
336.978	1.73
337.341	1.7
337.705	1.67
338.068	1.75
338.431	1.68
338.794	1.69
339.158	1.67
339.521	1.69
339.884	1.73
340.247	1.68
340.61	1.74
340.973	1.74
341.336	1.86
341.699	1.88
342.062	1.9
342.424	1.85
342.787	1.83
343.15	1.81
343.512	1.69
343.875	1.7
344.238	1.63
344.6	1.62
344.963	1.59
345.325	1.53
345.688	1.47
346.05	1.46
346.412	1.41
346.775	1.41
347.137	1.27
347.499	1.27
347.861	1.26
348.223	1.23
348.585	1.17
348.947	1.18
349.309	1.21
349.671	1.13
350.033	1.09
350.395	1.04
350.757	1.06
351.118	1.09
351.48	1.09
351.842	1.14
352.203	1.15
352.565	1.21
352.927	1.26
353.288	1.31
353.65	1.28
354.011	1.21
354.372	1.27
354.734	1.27
355.095	1.27
355.456	1.31
355.817	1.29
356.179	1.27
356.54	1.27
356.901	1.27
357.262	1.28
357.623	1.28
357.984	1.29
358.345	1.32
358.705	1.37
359.066	1.38
359.427	1.41
359.788	1.35
360.148	1.27
360.509	1.24
360.87	1.22
361.23	1.21
361.591	1.25
361.951	1.24
362.312	1.23
362.672	1.25
363.032	1.29
363.393	1.28
363.753	1.27
364.113	1.26
364.473	1.27
364.833	1.29
365.193	1.28
365.553	1.29
365.913	1.27
366.273	1.27
366.633	1.34
366.993	1.21
367.353	1.15
367.713	1.13
368.072	1.07
368.432	1.04
368.792	1.06
369.151	1.04
369.511	1.02
369.87	1
370.23	1.03
370.589	0.96
370.949	0.92
371.308	0.94
371.667	0.9
372.027	0.91
372.386	0.96
372.745	0.95
373.104	0.92
373.463	0.9
373.822	0.9
374.181	0.96
374.54	0.95
374.899	0.96
375.258	0.95
375.617	0.96
375.975	1.1
376.334	1.12
376.693	1.1
377.052	1.17
377.41	1.13
377.769	1.16
378.127	1.13
378.486	1.24
378.844	1.27
379.202	1.22
379.561	1.29
379.919	1.33
380.277	1.32
380.636	1.38
380.994	1.39
381.352	1.34
381.71	1.37
382.068	1.4
382.426	1.44
382.784	1.45
383.142	1.5
383.5	1.51
383.857	1.59
384.215	1.55
384.573	1.4
384.931	1.28
385.288	1.3
385.646	1.23
386.003	1.17
386.361	1.21
386.718	1.18
387.076	1.2
387.433	1.13
387.791	1.08
388.148	1.07
388.505	1.04
388.862	0.98
389.22	1.05
389.577	1.06
389.934	1.06
390.291	1.04
390.648	0.99
391.005	1
391.362	0.98
391.718	0.97
392.075	0.88
392.432	0.9
392.789	0.81
393.145	0.88
393.502	0.95
393.859	1
394.215	1.05
394.572	1.14
394.928	1.14
395.285	1.15
395.641	1.11
395.997	1.11
396.354	1.17
396.71	1.21
397.066	1.26
397.422	1.25
397.778	1.32
398.134	1.22
398.491	1.2
398.846	1.18
399.202	1.25
399.558	1.31
399.914	1.26
400.27	1.26
400.626	1.28
400.981	1.33
401.337	1.33
401.693	1.41
402.048	1.42
402.404	1.52
402.759	1.53
403.115	1.44
403.47	1.5
403.826	1.6
404.181	1.69
404.536	1.78
404.892	1.87
405.247	1.88
405.602	1.91
405.957	1.92
406.312	2.04
406.667	2.08
407.022	2.23
407.377	2.32
407.732	2.48
408.087	2.55
408.442	2.67
408.796	2.77
409.151	2.89
409.506	3.05
409.86	3.18
410.215	3.38
410.57	3.58
410.924	3.77
411.279	3.85
411.633	4.12
411.987	4.36
412.342	4.58
412.696	4.79
413.05	5.07
413.404	5.29
413.758	5.77
414.113	6.13
414.467	6.45
414.821	6.8
415.175	7.08
415.529	7.45
415.882	7.65
416.236	8.03
416.59	8.38
416.944	8.84
417.298	9.34
417.651	9.77
418.005	10.18
418.358	10.58
418.712	11.02
419.065	11.42
419.419	11.75
419.772	12.16
420.126	12.81
420.479	13.34
420.832	13.83
421.185	14.27
421.539	14.69
421.892	15.09
422.245	15.63
422.598	15.99
422.951	16.42
423.304	16.91
423.657	17.4
424.01	17.98
424.363	18.55
424.715	19.31
425.068	19.66
425.421	20.2
425.773	20.68
426.126	21.19
426.479	21.68
426.831	22.21
427.184	22.77
427.536	23.19
427.889	23.66
428.241	24.3
428.593	24.8
428.945	25.15
429.298	25.58
429.65	26.04
430.002	26.54
430.354	27.05
430.706	27.44
431.058	27.79
431.41	28.16
431.762	28.56
432.114	28.93
432.466	29.4
432.817	29.69
433.169	30.2
433.521	30.5
433.872	31.04
434.224	31.32
434.576	31.65
434.927	31.93
435.279	32.35
435.63	32.61
435.981	32.79
436.333	33.11
436.684	33.44
437.035	33.55
437.387	33.75
437.738	33.85
438.089	33.92
438.44	34.09
438.791	34.18
439.142	34.35
439.493	34.67
439.844	34.9
440.195	35.07
440.545	35.32
440.896	35.45
441.247	35.54
441.598	35.76
441.948	35.76
442.299	35.94
442.649	36.01
443	36.21
443.35	36.33
443.701	36.39
444.051	36.57
444.401	36.68
444.752	36.8
445.102	36.92
445.452	36.9
445.802	37.11
446.152	37.21
446.502	37.5
446.852	37.76
447.202	37.91
447.552	38.08
447.902	38.2
448.252	38.17
448.602	39.66
448.952	39.77
449.301	39.77
449.651	39.96
450.001	40.07
450.35	40.14
450.7	40.29
451.049	40.35
451.399	40.48
451.748	40.59
452.097	40.58
452.447	40.71
452.796	40.63
453.145	40.81
453.494	40.88
453.843	40.98
454.193	41.13
454.542	41.03
454.891	41.14
455.239	41.12
455.588	41.22
455.937	41.34
456.286	41.4
456.635	41.46
456.984	41.54
457.332	39.96
457.681	39.91
458.03	39.96
458.378	39.98
458.727	40
459.075	40.17
459.423	40.08
459.772	40.03
460.12	40.07
460.468	39.87
460.817	40.07
461.165	39.97
461.513	40.11
461.861	40.17
462.209	40.09
462.557	39.86
462.905	39.8
463.253	39.8
463.601	39.56
463.949	39.52
464.297	39.32
464.644	39.14
464.992	39.02
465.34	38.93
465.687	38.9
466.035	38.66
466.383	38.57
466.73	38.41
467.078	38.1
467.425	37.8
467.772	37.47
468.12	37.37
468.467	37.14
468.814	37.04
469.161	36.93
469.508	36.55
469.856	36.37
470.203	36.03
470.55	35.7
470.897	35.46
471.243	35.47
471.59	35.11
471.937	34.88
472.284	34.79
472.631	34.53
472.977	34.44
473.324	34.26
473.671	34.06
474.017	33.91
474.364	33.64
474.71	33.5
475.057	33.35
475.403	33.05
475.749	32.98
476.096	33.04
476.442	32.9
476.788	32.74
477.134	32.64
477.48	32.43
477.826	32.28
478.172	32.16
478.518	31.99
478.864	31.86
479.21	31.78
479.556	31.73
479.902	31.5
480.248	31.42
480.593	31.35
480.939	31.28
481.285	31.2
481.63	31.11
481.976	30.96
482.321	30.81
482.667	30.63
483.012	30.49
483.357	30.53
483.703	30.46
484.048	30.62
484.393	30.47
484.738	30.34
485.084	30.28
485.429	30.09
485.774	30.05
486.119	29.94
486.464	29.9
486.808	29.82
487.153	29.8
487.498	29.62
487.843	29.43
488.188	29.32
488.532	29.22
488.877	29.19
489.222	29.04
489.566	28.84
489.911	28.73
490.255	28.47
490.6	28.41
490.944	28.36
491.288	28.23
491.633	28.17
491.977	27.97
492.321	27.8
492.665	27.52
493.009	27.49
493.353	27.32
493.697	27.11
494.041	27.03
494.385	26.89
494.729	26.72
495.073	26.5
495.417	26.37
495.76	26.17
496.104	26.09
496.448	25.97
496.791	25.81
497.135	25.61
497.479	25.39
497.822	25.24
498.165	25.13
498.509	24.97
498.852	24.79
499.196	24.6
499.539	24.37
499.882	24.27
500.225	24.13
500.568	23.97
500.911	23.78
501.254	23.57
501.597	23.43
501.94	23.24
502.283	23.18
502.626	23.07
502.969	22.91
503.312	22.86
503.654	22.76
503.997	22.62
504.34	22.47
504.682	22.36
505.025	22.17
505.367	21.93
505.71	21.81
506.052	21.74
506.395	21.63
506.737	21.53
507.079	21.31
507.421	21.21
507.764	21.03
508.106	20.82
508.448	20.63
508.79	20.45
509.132	20.3
509.474	20.17
509.816	20
510.158	19.79
510.499	19.68
510.841	19.47
511.183	19.3
511.525	19.17
511.866	18.98
512.208	18.81
512.549	18.65
512.891	18.6
513.232	18.46
513.574	18.38
513.915	18.34
514.256	18.23
514.598	18.08
514.939	18.05
515.28	17.91
515.621	17.88
515.962	17.75
516.303	17.66
516.644	17.72
516.985	17.68
517.326	17.61
517.667	17.58
518.008	17.5
518.349	17.44
518.69	17.36
519.03	17.21
519.371	17.15
519.712	17.06
520.052	17
520.393	17.01
520.733	16.87
521.074	16.82
521.414	16.72
521.754	16.61
522.095	16.47
522.435	16.55
522.775	16.47
523.115	16.34
523.455	16.11
523.795	15.99
524.135	15.89
524.475	15.91
524.815	15.9
525.155	15.71
525.495	15.58
525.835	15.49
526.175	15.25
526.514	15.23
526.854	15.2
527.194	15.17
527.533	15.11
527.873	15.04
528.212	14.97
528.552	14.84
528.891	14.64
529.23	14.69
529.57	14.58
529.909	14.45
530.248	14.41
530.587	14.28
530.927	14.08
531.266	14.01
531.605	14.03
531.944	14.07
532.283	13.98
532.621	13.9
532.96	13.85
533.299	13.76
533.638	13.76
533.977	13.71
534.315	13.62
534.654	13.74
534.992	13.68
535.331	13.56
535.67	13.34
536.008	13.2
536.346	13.08
536.685	12.98
537.023	12.86
537.361	12.78
537.7	12.64
538.038	12.54
538.376	12.4
538.714	12.36
539.052	12.4
539.39	12.34
539.728	12.39
540.066	12.36
540.404	12.2
540.741	12.22
541.079	12.19
541.417	12.02
541.755	11.89
542.092	11.76
542.43	11.74
542.767	11.65
543.105	11.49
543.442	11.5
543.78	11.54
544.117	11.67
544.454	11.82
544.792	11.79
545.129	11.87
545.466	11.87
545.803	11.83
546.14	11.78
546.477	11.73
546.814	11.69
547.151	11.55
547.488	11.53
547.825	11.41
548.162	11.36
548.499	11.19
548.835	11.18
549.172	11.11
549.509	11.12
549.845	11.25
550.182	11.28
550.518	11.33
550.855	11.32
551.191	11.38
551.528	11.42
551.864	11.21
552.2	11.23
552.537	11.12
552.873	11.01
553.209	11.08
553.545	10.96
553.881	10.98
554.217	10.99
554.553	11.05
554.889	11.05
555.225	11.09
555.561	11.16
555.896	11.12
556.232	11.31
556.568	11.11
556.903	11.21
557.239	11.27
557.575	11.25
557.91	11.22
558.245	11.11
558.581	11.14
558.916	11.18
559.252	11.3
559.587	11.22
559.922	11.22
560.257	11.33
560.592	11.29
560.928	11.37
561.263	11.51
561.598	11.48
561.933	11.51
562.267	11.62
562.602	11.8
562.937	11.82
563.272	11.98
563.607	12.13
563.941	12.28
564.276	12.41
564.611	12.45
564.945	12.71
565.28	12.67
565.614	12.61
565.949	12.78
566.283	12.92
566.617	13.13
566.951	13.21
567.286	13.18
567.62	13.04
567.954	13.21
568.288	13.26
568.622	13.33
568.956	13.34
569.29	13.37
569.624	13.36
569.958	13.51
570.292	13.52
570.626	13.63
570.959	13.56
571.293	13.61
571.627	13.61
571.96	13.71
572.294	13.81
572.627	13.88
572.961	13.88
573.294	13.94
573.627	14.03
573.961	14.1
574.294	14.12
574.627	14.17
574.961	14.13
575.294	14.11
575.627	14.15
575.96	14.26
576.293	14.27
576.626	14.36
576.959	14.42
577.292	14.48
577.624	14.58
577.957	14.71
578.29	14.73
578.623	14.78
578.955	14.73
579.288	14.85
579.62	14.86
579.953	14.97
580.285	15.02
580.618	14.96
580.95	14.96
581.282	15.04
581.615	15.13
581.947	15.25
582.279	15.35
582.611	15.43
582.943	15.44
583.275	15.53
583.607	15.79
583.939	15.9
584.271	15.95
584.603	16.04
584.935	16.08
585.267	16.18
585.598	16.33
585.93	16.52
586.262	16.5
586.593	16.63
586.925	16.75
587.256	16.92
587.588	17
587.919	17.24
588.25	17.31
588.582	17.33
588.913	17.44
589.244	17.54
589.575	17.69
589.907	17.75
590.238	17.75
590.569	17.96
590.9	18.18
591.231	18.37
591.562	18.42
591.892	18.42
592.223	18.69
592.554	18.98
592.885	19.2
593.215	19.39
593.546	19.45
593.877	19.53
594.207	19.47
594.538	19.65
594.868	19.76
595.198	19.97
595.529	20.1
595.859	20.32
596.189	20.4
596.52	20.5
596.85	20.71
597.18	20.93
597.51	21.03
597.84	21.09
598.17	21.17
598.5	21.35
598.83	21.49
599.16	21.76
599.489	21.93
599.819	22.1
600.149	22.27
600.479	22.36
600.808	22.43
601.138	22.69
601.467	22.85
601.797	23.18
602.126	23.47
602.456	23.72
602.785	23.92
603.114	24.29
603.443	24.58
603.773	24.89
604.102	25.02
604.431	25.35
604.76	25.6
605.089	25.79
605.418	25.98
605.747	26.33
606.076	26.65
606.405	26.88
606.733	27.12
607.062	27.45
607.391	27.41
607.72	27.71
608.048	28.17
608.377	28.43
608.705	28.7
609.034	29.12
609.362	29.43
609.69	29.69
610.019	29.98
610.347	30.08
610.675	30.3
611.004	30.58
611.332	30.58
611.66	30.88
611.988	31.09
612.316	31.47
612.644	31.55
612.972	31.7
613.3	32
613.627	32.36
613.955	32.73
614.283	33.03
614.611	33.24
614.938	33.6
615.266	33.77
615.593	34.2
615.921	34.56
616.248	34.54
616.576	35.12
616.903	35.7
617.23	36.14
617.558	36.53
617.885	37.21
618.212	37.39
618.539	37.98
618.866	38.47
619.193	38.77
619.52	39.04
619.847	39.09
620.174	39.46
620.501	39.72
620.828	40.07
621.155	40.5
621.481	40.82
621.808	41.17
622.135	41.25
622.461	41.33
622.788	41.89
623.114	42.08
623.441	42.35
623.767	42.62
624.093	42.77
624.42	43.33
624.746	43.61
625.072	43.86
625.398	44.11
625.725	44.26
626.051	44.32
626.377	44.88
626.703	45.23
627.029	45.86
627.354	46.44
627.68	47.18
628.006	47.8
628.332	47.84
628.658	47.98
628.983	48.22
629.309	48.85
629.634	49.55
629.96	49.36
630.285	50.03
630.611	50.41
630.936	50.76
631.262	51.35
631.587	51.86
631.912	52.24
632.237	53.18
632.562	54.22
632.887	54.5
633.213	54.93
633.538	55.14
633.863	55
634.187	55.37
634.512	55.81
634.837	55.74
635.162	55.68
635.487	55.62
635.811	55.85
636.136	56.24
636.461	56.71
636.785	56.86
637.11	57.47
637.434	57.7
637.758	57.41
638.083	57.79
638.407	58.01
638.731	58.61
639.056	58.54
639.38	58.58
639.704	58.7
640.028	59.38
640.352	58.79
640.676	58.66
641	58.75
641.324	58.84
641.648	59.18
641.972	60.03
642.295	60.07
642.619	60.64
642.943	60.35
643.266	60.29
643.59	60.64
643.913	60.49
644.237	60.7
644.56	60.72
644.884	60.72
645.207	60.61
645.53	60.89
645.854	61.37
646.177	61.35
646.5	61.49
646.823	61.58
647.146	61.71
647.469	61.63
647.792	61.66
648.115	61.56
648.438	62.4
648.761	63.94
649.084	64.82
649.406	64.88
649.729	64.17
650.052	64.13
650.374	64.2
650.697	64.08
651.019	64.4
651.342	64.62
651.664	64.47
651.987	64.54
652.309	64.43
652.631	64.59
652.953	64.8
653.276	64.87
653.598	64.77
653.92	64.73
654.242	64.95
654.564	65.01
654.886	64.96
655.208	65.05
655.53	65.26
655.851	65.3
656.173	65.28
656.495	65.32
656.816	64.57
657.138	64.21
657.46	64.45
657.781	66.12
658.103	67.35
658.424	68
658.746	68.66
659.067	69
659.388	69.28
659.709	69.79
660.031	70.15
