Data from T1_Reflection__55__20-50-14-395.txt Node

Date: Wed Jun 02 20:50:14 CEST 2021
User: mabdelazizm
Spectrometer: FLMS18565
Trigger mode: 0
Integration Time (sec): 2.000000E0
Scans to average: 1
Electric dark correction enabled: true
Nonlinearity correction enabled: false
Boxcar width: 12
XAxis mode: Wavelengths
Number of Pixels in Spectrum: 2048
>>>>>Begin Spectral Data<<<<<
179.071	59.35
179.452	51.33
179.833	66.43
180.214	44.55
180.595	32.72
180.977	47.9
181.358	34.76
181.739	75.83
182.12	57.51
182.501	67.58
182.882	82.16
183.262	118
183.643	-136.99
184.024	-0.09
184.405	9.49
184.786	15.32
185.166	21.88
185.547	13.59
185.927	9.95
186.308	12.8
186.689	9.77
187.069	17.03
187.449	22.17
187.83	22.2
188.21	22.92
188.59	25.26
188.971	24.03
189.351	23.13
189.731	19.78
190.111	19.6
190.491	17.91
190.871	16.82
191.251	19.67
191.631	20.22
192.011	20.19
192.391	19.4
192.771	20.96
193.151	19.65
193.531	19.38
193.91	17.12
194.29	16.49
194.67	16.01
195.049	16.69
195.429	15.72
195.808	14.33
196.188	14.3
196.567	13.11
196.946	12.6
197.326	12.39
197.705	11.66
198.084	9.51
198.464	9.85
198.843	10.32
199.222	10.83
199.601	9.89
199.98	10.89
200.359	10.68
200.738	11.43
201.117	11.09
201.496	11
201.875	11.2
202.254	10.03
202.632	10.5
203.011	10.79
203.39	11.72
203.768	10.57
204.147	10.94
204.525	11.12
204.904	12.51
205.282	14.36
205.661	13.2
206.039	12.19
206.418	11.81
206.796	11.73
207.174	11.77
207.552	12.56
207.931	12.04
208.309	11.8
208.687	12.15
209.065	12.92
209.443	12.43
209.821	12.4
210.199	10.64
210.577	9.07
210.954	8.96
211.332	8.77
211.71	9.72
212.088	9.95
212.465	8.29
212.843	8.62
213.221	9.35
213.598	8.84
213.976	8.34
214.353	7.68
214.731	6.23
215.108	5.96
215.485	6.08
215.863	5.92
216.24	5.49
216.617	5.52
216.994	5.66
217.371	5.49
217.749	5.65
218.126	5.43
218.503	4.49
218.88	4.9
219.256	4.95
219.633	4.9
220.01	5.55
220.387	5.67
220.764	5.59
221.14	5.09
221.517	4.83
221.894	4.98
222.27	4.83
222.647	4.5
223.023	4.72
223.4	4.58
223.776	4.57
224.153	4.9
224.529	5.27
224.905	5.92
225.282	5.97
225.658	6.17
226.034	5.9
226.41	5.62
226.786	5.72
227.162	5.63
227.538	5.45
227.914	5.66
228.29	5.33
228.666	5.2
229.042	5.14
229.418	4.97
229.793	4.78
230.169	4.8
230.545	4.47
230.92	4.59
231.296	4.54
231.672	4.54
232.047	4.42
232.422	4.41
232.798	4.27
233.173	4.14
233.549	3.8
233.924	3.61
234.299	3.36
234.674	3.28
235.05	3.28
235.425	3.17
235.8	3.26
236.175	3.17
236.55	3.14
236.925	3.14
237.3	3.08
237.675	3.07
238.049	3.05
238.424	3.04
238.799	3.03
239.174	3.01
239.548	2.99
239.923	3.02
240.297	2.89
240.672	2.94
241.046	2.98
241.421	3.04
241.795	2.92
242.17	2.95
242.544	2.94
242.918	3.05
243.293	3.1
243.667	3.05
244.041	3.04
244.415	2.93
244.789	3.01
245.163	2.93
245.537	2.92
245.911	2.83
246.285	2.86
246.659	2.85
247.033	2.91
247.406	2.8
247.78	2.76
248.154	2.8
248.528	2.81
248.901	2.84
249.275	2.83
249.648	2.72
250.022	2.67
250.395	2.58
250.769	2.61
251.142	2.66
251.515	2.67
251.888	2.69
252.262	2.67
252.635	2.65
253.008	2.69
253.381	2.66
253.754	2.71
254.127	2.71
254.5	2.73
254.873	2.69
255.246	2.76
255.619	2.7
255.992	2.64
256.364	2.6
256.737	2.66
257.11	2.72
257.483	2.63
257.855	2.6
258.228	2.58
258.6	2.63
258.973	2.77
259.345	2.74
259.718	2.74
260.09	2.72
260.462	2.69
260.834	2.68
261.207	2.64
261.579	2.64
261.951	2.69
262.323	2.71
262.695	2.7
263.067	2.68
263.439	2.68
263.811	2.62
264.183	2.63
264.555	2.61
264.927	2.59
265.298	2.64
265.67	2.59
266.042	2.57
266.413	2.44
266.785	2.51
267.156	2.51
267.528	2.44
267.899	2.42
268.271	2.35
268.642	2.41
269.013	2.35
269.385	2.31
269.756	2.3
270.127	2.29
270.498	2.34
270.87	2.34
271.241	2.27
271.612	2.24
271.983	2.21
272.354	2.16
272.724	2.14
273.095	2.15
273.466	2.24
273.837	2.22
274.208	2.22
274.578	2.19
274.949	2.28
275.32	2.29
275.69	2.34
276.061	2.27
276.431	2.24
276.802	2.27
277.172	2.26
277.542	2.29
277.913	2.24
278.283	2.29
278.653	2.33
279.023	2.3
279.394	2.33
279.764	2.32
280.134	2.31
280.504	2.34
280.874	2.33
281.244	2.31
281.614	2.28
281.983	2.28
282.353	2.27
282.723	2.2
283.093	2.19
283.462	2.23
283.832	2.22
284.202	2.17
284.571	2.16
284.941	2.13
285.31	2.08
285.68	2.1
286.049	2.1
286.418	2.08
286.788	2.14
287.157	2.13
287.526	2.07
287.895	2.02
288.264	2.08
288.633	2.07
289.002	2.02
289.371	2.01
289.74	1.92
290.109	1.88
290.478	1.93
290.847	1.95
291.216	1.92
291.585	1.93
291.953	1.9
292.322	1.86
292.691	1.84
293.059	1.78
293.428	1.76
293.796	1.78
294.165	1.77
294.533	1.83
294.901	1.86
295.27	1.83
295.638	1.82
296.006	1.71
296.374	1.75
296.743	1.77
297.111	1.76
297.479	1.66
297.847	1.63
298.215	1.64
298.583	1.65
298.95	1.72
299.318	1.68
299.686	1.67
300.054	1.66
300.422	1.65
300.789	1.59
301.157	1.62
301.525	1.67
301.892	1.63
302.26	1.63
302.627	1.6
302.994	1.55
303.362	1.61
303.729	1.63
304.097	1.55
304.464	1.56
304.831	1.54
305.198	1.59
305.565	1.53
305.932	1.53
306.299	1.56
306.666	1.58
307.033	1.58
307.4	1.58
307.767	1.57
308.134	1.56
308.501	1.61
308.867	1.62
309.234	1.62
309.601	1.66
309.967	1.69
310.334	1.67
310.701	1.61
311.067	1.61
311.433	1.69
311.8	1.66
312.166	1.72
312.533	1.67
312.899	1.69
313.265	1.68
313.631	1.66
313.997	1.64
314.363	1.68
314.729	1.63
315.096	1.65
315.461	1.66
315.827	1.66
316.193	1.74
316.559	1.73
316.925	1.7
317.291	1.68
317.656	1.61
318.022	1.58
318.388	1.56
318.753	1.51
319.119	1.49
319.484	1.56
319.85	1.56
320.215	1.55
320.581	1.48
320.946	1.47
321.311	1.39
321.676	1.38
322.042	1.37
322.407	1.38
322.772	1.42
323.137	1.41
323.502	1.33
323.867	1.4
324.232	1.37
324.597	1.33
324.962	1.35
325.327	1.26
325.691	1.27
326.056	1.31
326.421	1.44
326.785	1.47
327.15	1.52
327.514	1.57
327.879	1.65
328.243	1.59
328.608	1.56
328.972	1.59
329.337	1.61
329.701	1.69
330.065	1.76
330.429	1.76
330.794	1.8
331.158	1.88
331.522	1.87
331.886	1.84
332.25	1.83
332.614	1.81
332.978	1.72
333.342	1.74
333.705	1.75
334.069	1.77
334.433	1.78
334.797	1.74
335.16	1.67
335.524	1.53
335.887	1.55
336.251	1.51
336.614	1.47
336.978	1.41
337.341	1.5
337.705	1.5
338.068	1.57
338.431	1.55
338.794	1.5
339.158	1.49
339.521	1.47
339.884	1.4
340.247	1.23
340.61	1.25
340.973	1.27
341.336	1.28
341.699	1.35
342.062	1.43
342.424	1.41
342.787	1.4
343.15	1.37
343.512	1.33
343.875	1.39
344.238	1.4
344.6	1.35
344.963	1.3
345.325	1.29
345.688	1.29
346.05	1.35
346.412	1.34
346.775	1.3
347.137	1.27
347.499	1.25
347.861	1.28
348.223	1.26
348.585	1.29
348.947	1.36
349.309	1.39
349.671	1.37
350.033	1.39
350.395	1.42
350.757	1.41
351.118	1.38
351.48	1.41
351.842	1.33
352.203	1.33
352.565	1.3
352.927	1.28
353.288	1.32
353.65	1.39
354.011	1.38
354.372	1.42
354.734	1.43
355.095	1.34
355.456	1.32
355.817	1.29
356.179	1.23
356.54	1.25
356.901	1.17
357.262	1.13
357.623	1.12
357.984	1.12
358.345	1.22
358.705	1.15
359.066	1.04
359.427	1.13
359.788	1.08
360.148	1.02
360.509	0.97
360.87	1.04
361.23	0.93
361.591	0.91
361.951	0.86
362.312	0.83
362.672	0.81
363.032	0.84
363.393	0.79
363.753	0.71
364.113	0.73
364.473	0.79
364.833	0.82
365.193	0.79
365.553	0.73
365.913	0.83
366.273	0.81
366.633	0.8
366.993	0.71
367.353	0.56
367.713	0.66
368.072	0.74
368.432	0.65
368.792	0.7
369.151	0.78
369.511	0.83
369.87	0.8
370.23	0.93
370.589	0.97
370.949	1
371.308	1.09
371.667	1.08
372.027	1.08
372.386	1.06
372.745	1.07
373.104	1.12
373.463	0.99
373.822	0.95
374.181	0.97
374.54	0.98
374.899	0.93
375.258	0.98
375.617	0.99
375.975	1.09
376.334	1.19
376.693	1.19
377.052	1.12
377.41	1.12
377.769	1.09
378.127	1.01
378.486	0.96
378.844	0.99
379.202	0.97
379.561	0.97
379.919	0.97
380.277	0.9
380.636	0.92
380.994	0.95
381.352	0.97
381.71	1.04
382.068	0.97
382.426	0.99
382.784	1.06
383.142	1.08
383.5	1.11
383.857	1.12
384.215	1.11
384.573	1.12
384.931	1.04
385.288	1.01
385.646	0.89
386.003	0.89
386.361	0.9
386.718	0.93
387.076	0.92
387.433	0.93
387.791	0.95
388.148	0.91
388.505	0.9
388.862	0.89
389.22	0.98
389.577	0.98
389.934	0.97
390.291	0.97
390.648	0.95
391.005	0.97
391.362	0.95
391.718	0.9
392.075	0.84
392.432	0.82
392.789	0.8
393.145	0.8
393.502	0.74
393.859	0.75
394.215	0.68
394.572	0.8
394.928	0.85
395.285	0.84
395.641	0.86
395.997	0.9
396.354	0.98
396.71	1
397.066	1.01
397.422	1.06
397.778	1.02
398.134	0.89
398.491	0.91
398.846	0.8
399.202	0.77
399.558	0.75
399.914	0.73
400.27	0.78
400.626	0.68
400.981	0.77
401.337	0.77
401.693	0.76
402.048	0.81
402.404	0.83
402.759	0.88
403.115	1
403.47	0.97
403.826	0.97
404.181	0.99
404.536	0.93
404.892	0.96
405.247	0.91
405.602	0.81
405.957	0.82
406.312	0.74
406.667	0.85
407.022	0.96
407.377	0.91
407.732	1.03
408.087	1.1
408.442	1.24
408.796	1.32
409.151	1.31
409.506	1.39
409.86	1.31
410.215	1.4
410.57	1.4
410.924	1.39
411.279	1.48
411.633	1.44
411.987	1.43
412.342	1.46
412.696	1.45
413.05	1.46
413.404	1.47
413.758	1.5
414.113	1.53
414.467	1.57
414.821	1.57
415.175	1.63
415.529	1.59
415.882	1.52
416.236	1.52
416.59	1.57
416.944	1.55
417.298	1.54
417.651	1.46
418.005	1.46
418.358	1.51
418.712	1.59
419.065	1.53
419.419	1.53
419.772	1.51
420.126	1.5
420.479	1.6
420.832	1.54
421.185	1.51
421.539	1.58
421.892	1.53
422.245	1.57
422.598	1.58
422.951	1.5
423.304	1.5
423.657	1.45
424.01	1.53
424.363	1.53
424.715	1.53
425.068	1.54
425.421	1.5
425.773	1.48
426.126	1.47
426.479	1.52
426.831	1.45
427.184	1.48
427.536	1.44
427.889	1.54
428.241	1.71
428.593	1.68
428.945	1.7
429.298	1.69
429.65	1.77
430.002	1.8
430.354	1.76
430.706	1.79
431.058	1.75
431.41	1.78
431.762	1.85
432.114	1.78
432.466	1.84
432.817	1.84
433.169	1.8
433.521	1.93
433.872	2
434.224	1.94
434.576	2
434.927	1.93
435.279	1.91
435.63	1.98
435.981	1.95
436.333	1.99
436.684	1.9
437.035	1.79
437.387	1.82
437.738	1.81
438.089	1.67
438.44	1.68
438.791	1.73
439.142	1.61
439.493	1.63
439.844	1.6
440.195	1.49
440.545	1.58
440.896	1.68
441.247	1.69
441.598	1.69
441.948	1.78
442.299	1.77
442.649	1.71
443	1.76
443.35	1.75
443.701	1.8
444.051	1.84
444.401	1.97
444.752	2
445.102	2
445.452	2
445.802	1.99
446.152	2.04
446.502	2.09
446.852	2.16
447.202	2.05
447.552	2.02
447.902	2.15
448.252	2.1
448.602	3.44
448.952	3.6
449.301	3.53
449.651	3.51
450.001	3.51
450.35	3.46
450.7	3.52
451.049	3.51
451.399	3.58
451.748	3.62
452.097	3.65
452.447	3.58
452.796	3.49
453.145	3.47
453.494	3.41
453.843	3.42
454.193	3.45
454.542	3.48
454.891	3.44
455.239	3.29
455.588	3.33
455.937	3.4
456.286	3.42
456.635	3.41
456.984	3.43
457.332	2.02
457.681	1.94
458.03	1.94
458.378	2.04
458.727	2.03
459.075	2.12
459.423	2.13
459.772	2.17
460.12	2.09
460.468	2.13
460.817	2.25
461.165	2.28
461.513	2.34
461.861	2.25
462.209	2.28
462.557	2.33
462.905	2.38
463.253	2.39
463.601	2.39
463.949	2.53
464.297	2.53
464.644	2.55
464.992	2.51
465.34	2.57
465.687	2.66
466.035	2.61
466.383	2.71
466.73	2.8
467.078	2.72
467.425	2.8
467.772	2.79
468.12	2.68
468.467	2.57
468.814	2.67
469.161	2.65
469.508	2.48
469.856	2.52
470.203	2.54
470.55	2.56
470.897	2.55
471.243	2.54
471.59	2.44
471.937	2.4
472.284	2.5
472.631	2.47
472.977	2.47
473.324	2.55
473.671	2.59
474.017	2.46
474.364	2.42
474.71	2.37
475.057	2.27
475.403	2.12
475.749	2.27
476.096	2.17
476.442	2.17
476.788	2.14
477.134	2.12
477.48	2.21
477.826	2.26
478.172	2.34
478.518	2.31
478.864	2.19
479.21	2.18
479.556	2.23
479.902	2.24
480.248	2.3
480.593	2.28
480.939	2.21
481.285	2.2
481.63	2.19
481.976	2.13
482.321	2.14
482.667	2.22
483.012	2.27
483.357	2.38
483.703	2.46
484.048	2.64
484.393	2.6
484.738	2.76
485.084	2.74
485.429	2.84
485.774	2.98
486.119	2.95
486.464	3.04
486.808	3.04
487.153	3.18
487.498	3.42
487.843	3.68
488.188	3.76
488.532	3.89
488.877	4.05
489.222	4.36
489.566	4.64
489.911	4.99
490.255	5.35
490.6	5.68
490.944	5.95
491.288	6.27
491.633	6.6
491.977	6.92
492.321	7.3
492.665	7.55
493.009	7.9
493.353	8.28
493.697	8.81
494.041	9.26
494.385	9.75
494.729	10.33
495.073	10.78
495.417	11.48
495.76	12.01
496.104	12.59
496.448	13.09
496.791	13.78
497.135	14.39
497.479	15.13
497.822	15.74
498.165	16.31
498.509	17
498.852	17.67
499.196	18.39
499.539	19.14
499.882	19.82
500.225	20.52
500.568	21.26
500.911	21.95
501.254	22.7
501.597	23.54
501.94	24.25
502.283	25.03
502.626	25.76
502.969	26.48
503.312	27.18
503.654	27.98
503.997	28.78
504.34	29.57
504.682	30.32
505.025	31.07
505.367	31.75
505.71	32.52
506.052	33.21
506.395	33.94
506.737	34.68
507.079	35.3
507.421	36.1
507.764	36.82
508.106	37.54
508.448	38.25
508.79	38.87
509.132	39.55
509.474	40.2
509.816	40.79
510.158	41.48
510.499	42.09
510.841	42.59
511.183	43.26
511.525	43.86
511.866	44.42
512.208	44.91
512.549	45.27
512.891	45.78
513.232	46.23
513.574	46.77
513.915	47.29
514.256	47.76
514.598	48.27
514.939	48.88
515.28	49.4
515.621	49.88
515.962	50.35
516.303	50.82
516.644	51.18
516.985	51.71
517.326	52.17
517.667	52.43
518.008	52.67
518.349	53.13
518.69	53.43
519.03	53.77
519.371	54.09
519.712	54.35
520.052	54.62
520.393	54.94
520.733	55.2
521.074	55.59
521.414	55.92
521.754	56.43
522.095	56.77
522.435	57.14
522.775	57.42
523.115	57.81
523.455	57.88
523.795	58.19
524.135	58.55
524.475	58.83
524.815	59.15
525.155	59.52
525.495	59.71
525.835	60.12
526.175	60.46
526.514	60.9
526.854	60.96
527.194	61.14
527.533	61.24
527.873	61.49
528.212	61.74
528.552	62.04
528.891	62.39
529.23	62.65
529.57	62.78
529.909	62.93
530.248	63.11
530.587	63.29
530.927	63.34
531.266	63.52
531.605	63.59
531.944	63.8
532.283	64.01
532.621	64.07
532.96	64.21
533.299	64.24
533.638	64.26
533.977	64.14
534.315	64.12
534.654	64.26
534.992	64.19
535.331	64.36
535.67	64.47
536.008	64.65
536.346	64.7
536.685	64.77
537.023	64.86
537.361	64.89
537.7	65
538.038	65.12
538.376	65.15
538.714	65.16
539.052	65.16
539.39	65.3
539.728	65.51
540.066	65.55
540.404	65.74
540.741	65.78
541.079	65.8
541.417	65.82
541.755	66.01
542.092	66.18
542.43	66.54
542.767	66.64
543.105	66.46
543.442	66.54
543.78	66.71
544.117	66.93
544.454	67.07
544.792	67.37
545.129	67.4
545.466	67.44
545.803	67.47
546.14	67.5
546.477	67.58
546.814	67.8
547.151	67.84
547.488	68.07
547.825	68.1
548.162	67.97
548.499	68.01
548.835	68.06
549.172	68.1
549.509	68.23
549.845	68.09
550.182	68.06
550.518	68.03
550.855	68.01
551.191	68.09
551.528	68.37
551.864	68.56
552.2	68.63
552.537	68.61
552.873	68.8
553.209	68.7
553.545	68.8
553.881	69.08
554.217	69.25
554.553	69.4
554.889	69.47
555.225	69.67
555.561	69.64
555.896	69.43
556.232	69.58
556.568	69.84
556.903	69.79
557.239	69.84
557.575	69.7
557.91	69.7
558.245	69.88
558.581	69.91
558.916	70.06
559.252	70.08
559.587	69.96
559.922	70.1
560.257	70.17
560.592	70.11
560.928	70.03
561.263	69.97
561.598	70
561.933	70.1
562.267	69.86
562.602	69.85
562.937	69.75
563.272	69.94
563.607	69.86
563.941	70.02
564.276	70.34
564.611	70.39
564.945	70.53
565.28	70.78
565.614	70.82
565.949	71.02
566.283	71.11
566.617	71.13
566.951	71.06
567.286	71.11
567.62	71.15
567.954	71.28
568.288	71.12
568.622	71.05
568.956	71.1
569.29	71.13
569.624	71.21
569.958	71.17
570.292	71.2
570.626	71.24
570.959	71.28
571.293	71.39
571.627	71.42
571.96	71.44
572.294	71.38
572.627	71.4
572.961	71.46
573.294	71.35
573.627	71.45
573.961	71.56
574.294	71.62
574.627	71.57
574.961	71.56
575.294	71.74
575.627	71.69
575.96	71.7
576.293	71.63
576.626	71.65
576.959	71.71
577.292	71.72
577.624	71.68
577.957	71.71
578.29	71.78
578.623	71.73
578.955	71.77
579.288	71.72
579.62	71.69
579.953	71.57
580.285	71.46
580.618	71.55
580.95	71.51
581.282	71.55
581.615	71.61
581.947	71.59
582.279	71.51
582.611	71.46
582.943	71.58
583.275	71.73
583.607	71.63
583.939	71.73
584.271	71.68
584.603	71.87
584.935	71.97
585.267	71.96
585.598	72.08
585.93	72.34
586.262	72.37
586.593	72.4
586.925	72.57
587.256	72.55
587.588	72.5
587.919	72.43
588.25	72.5
588.582	72.61
588.913	72.48
589.244	72.56
589.575	72.46
589.907	72.56
590.238	72.44
590.569	72.47
590.9	72.58
591.231	72.57
591.562	72.42
591.892	72.45
592.223	72.46
592.554	72.5
592.885	72.48
593.215	72.39
593.546	72.38
593.877	72.33
594.207	72.09
594.538	72.12
594.868	72.12
595.198	72.06
595.529	72.12
595.859	72.19
596.189	72.46
596.52	72.57
596.85	72.63
597.18	72.86
597.51	72.8
597.84	72.98
598.17	72.97
598.5	73.06
598.83	73.05
599.16	72.96
599.489	72.85
599.819	72.86
600.149	72.93
600.479	72.86
600.808	72.91
601.138	72.87
601.467	72.99
601.797	73.15
602.126	73.14
602.456	73.32
602.785	73.17
603.114	73.06
603.443	72.95
603.773	73.03
604.102	73.14
604.431	73.09
604.76	72.93
605.089	72.92
605.418	72.8
605.747	72.82
606.076	72.65
606.405	72.48
606.733	72.52
607.062	72.48
607.391	72.54
607.72	72.48
608.048	72.53
608.377	72.53
608.705	72.58
609.034	72.69
609.362	72.45
609.69	72.45
610.019	72.39
610.347	72.33
610.675	72.2
611.004	72.01
611.332	72.13
611.66	72.14
611.988	71.96
612.316	71.73
612.644	71.57
612.972	71.75
613.3	71.77
613.627	71.74
613.955	71.74
614.283	71.8
614.611	71.82
614.938	71.55
615.266	71.72
615.593	71.76
615.921	71.84
616.248	71.7
616.576	71.66
616.903	71.59
617.23	71.64
617.558	71.95
617.885	72.21
618.212	72.18
618.539	72.08
618.866	71.99
619.193	72.28
619.52	72.28
619.847	72.44
620.174	72.86
620.501	73.02
620.828	72.91
621.155	72.83
621.481	72.88
621.808	72.8
622.135	72.59
622.461	72.4
622.788	72.42
623.114	72.46
623.441	72.46
623.767	72.25
624.093	72.76
624.42	73.1
624.746	73.23
625.072	73.11
625.398	72.95
625.725	73.18
626.051	72.76
626.377	73.24
626.703	73.87
627.029	73.95
627.354	74.1
627.68	74.07
628.006	74.2
628.332	73.41
628.658	73.61
628.983	73.98
629.309	73.7
629.634	73.28
629.96	73.53
630.285	73.43
630.611	73.71
630.936	74.14
631.262	74.28
631.587	74.38
631.912	74.56
632.237	73.99
632.562	74.17
632.887	74.21
633.213	74.55
633.538	74.2
633.863	74.14
634.187	74.46
634.512	73.99
634.837	74.11
635.162	74.43
635.487	74.08
635.811	74.33
636.136	73.79
636.461	73.9
636.785	73.53
637.11	73.47
637.434	73.65
637.758	73.77
638.083	74.24
638.407	74.64
638.731	74.28
639.056	74.35
639.38	74.26
639.704	74.32
640.028	74.34
640.352	74.37
640.676	74.17
641	73.9
641.324	73.93
641.648	73.6
641.972	73.62
642.295	72.9
642.619	72.36
642.943	71.72
643.266	71.45
643.59	71.31
643.913	70.87
644.237	71.15
644.56	71.33
644.884	71.9
645.207	72.37
645.53	72.35
645.854	72.52
646.177	72.3
646.5	72.43
646.823	72.65
647.146	72.78
647.469	72.97
647.792	72.48
648.115	72.49
648.438	72.47
648.761	74.05
649.084	73.66
649.406	74.19
649.729	73.54
650.052	73.17
650.374	73.23
650.697	73.51
651.019	73.47
651.342	73.44
651.664	73.6
651.987	73.52
652.309	73.55
652.631	73.8
652.953	73.58
653.276	73.36
653.598	73.22
653.92	73.33
654.242	73.21
654.564	73.19
654.886	73.25
655.208	72.99
655.53	72.91
655.851	72.82
656.173	72.99
656.495	73.13
656.816	72.21
657.138	72.06
657.46	70.65
657.781	71.31
658.103	71.68
658.424	72.09
658.746	71.3
659.067	71.21
659.388	71.29
659.709	71.82
660.031	72.07
660.352	71.99
660.673	71.48
660.994	71.94
661.315	72.29
661.636	73.19
661.957	72.73
662.278	73.18
662.599	72.56
662.919	71.94
663.24	72.44
663.561	72.59
663.881	72.61
664.202	71.61
664.523	70.76
