Data from T1_Reflection__17__17-10-04-701.txt Node

Date: Wed Jun 02 17:10:04 CEST 2021
User: mabdelazizm
Spectrometer: FLMS18565
Trigger mode: 0
Integration Time (sec): 2.000000E0
Scans to average: 1
Electric dark correction enabled: true
Nonlinearity correction enabled: false
Boxcar width: 12
XAxis mode: Wavelengths
Number of Pixels in Spectrum: 2048
>>>>>Begin Spectral Data<<<<<
179.071	149.29
179.452	486.78
179.833	3360.61
180.214	342.86
180.595	-3572.73
180.977	192.78
181.358	398.54
181.739	190.67
182.12	139.01
182.501	159.8
182.882	87.19
183.262	125.77
183.643	810.27
184.024	-63.15
184.405	-19.04
184.786	-2.63
185.166	1.95
185.547	2.6
185.927	0.35
186.308	7.93
186.689	12.44
187.069	14.42
187.449	14.92
187.83	17.33
188.21	10.21
188.59	12.97
188.971	10.31
189.351	7.68
189.731	7.35
190.111	8.21
190.491	6.52
190.871	4.79
191.251	4.13
191.631	3.26
192.011	4.13
192.391	6.24
192.771	9.85
193.151	12.04
193.531	9.24
193.91	9.32
194.29	9.33
194.67	8.08
195.049	8.45
195.429	8.24
195.808	7.89
196.188	7.65
196.567	8.12
196.946	7.55
197.326	7.99
197.705	8.02
198.084	8.06
198.464	9.02
198.843	10.11
199.222	11.28
199.601	11.1
199.98	10.95
200.359	10.82
200.738	11.28
201.117	11.77
201.496	11.67
201.875	10.95
202.254	8.56
202.632	8.23
203.011	8.4
203.39	6.71
203.768	6.59
204.147	6.96
204.525	6.37
204.904	6.85
205.282	7.07
205.661	6.19
206.039	6.81
206.418	5.76
206.796	5.21
207.174	5.71
207.552	6.85
207.931	6.59
208.309	6.14
208.687	5.24
209.065	4.74
209.443	4.37
209.821	4.67
210.199	4.46
210.577	4.12
210.954	3.33
211.332	3.19
211.71	3.62
212.088	3.47
212.465	3.35
212.843	3.66
213.221	3.9
213.598	3.89
213.976	3.6
214.353	3.02
214.731	2.14
215.108	2.63
215.485	1.48
215.863	1.92
216.24	1.88
216.617	2.7
216.994	1.89
217.371	2.19
217.749	2.02
218.126	2.11
218.503	2.4
218.88	2.65
219.256	2.43
219.633	2.23
220.01	2.74
220.387	3.4
220.764	3.31
221.14	3.42
221.517	3.14
221.894	2.91
222.27	2.97
222.647	2.91
223.023	2.77
223.4	2.57
223.776	2.66
224.153	2.96
224.529	2.84
224.905	3.05
225.282	3.07
225.658	3.12
226.034	2.53
226.41	2.67
226.786	2.53
227.162	2.66
227.538	2.58
227.914	2.62
228.29	2.55
228.666	2.38
229.042	2.3
229.418	1.93
229.793	1.95
230.169	1.68
230.545	1.36
230.92	1.39
231.296	1.36
231.672	1.46
232.047	1.16
232.422	1.21
232.798	1.32
233.173	1.12
233.549	1.05
233.924	0.92
234.299	0.83
234.674	0.75
235.05	0.46
235.425	0.42
235.8	0.42
236.175	0.42
236.55	0.36
236.925	0.37
237.3	0.38
237.675	0.38
238.049	0.63
238.424	0.56
238.799	0.59
239.174	0.51
239.548	0.66
239.923	0.72
240.297	0.81
240.672	0.83
241.046	0.82
241.421	0.79
241.795	0.7
242.17	0.69
242.544	0.82
242.918	0.67
243.293	0.64
243.667	0.63
244.041	0.68
244.415	0.79
244.789	0.96
245.163	0.84
245.537	0.82
245.911	0.75
246.285	0.73
246.659	0.64
247.033	0.64
247.406	0.42
247.78	0.5
248.154	0.53
248.528	0.52
248.901	0.54
249.275	0.64
249.648	0.62
250.022	0.61
250.395	0.6
250.769	0.68
251.142	0.71
251.515	0.76
251.888	0.69
252.262	0.8
252.635	0.9
253.008	0.87
253.381	0.84
253.754	0.86
254.127	0.71
254.5	0.76
254.873	0.75
255.246	0.88
255.619	0.86
255.992	0.87
256.364	0.88
256.737	0.92
257.11	0.9
257.483	0.9
257.855	0.91
258.228	0.9
258.6	0.83
258.973	0.86
259.345	0.83
259.718	0.85
260.09	0.83
260.462	0.85
260.834	0.83
261.207	0.78
261.579	0.77
261.951	0.67
262.323	0.73
262.695	0.74
263.067	0.68
263.439	0.72
263.811	0.67
264.183	0.66
264.555	0.6
264.927	0.59
265.298	0.52
265.67	0.52
266.042	0.51
266.413	0.45
266.785	0.49
267.156	0.47
267.528	0.43
267.899	0.4
268.271	0.28
268.642	0.31
269.013	0.35
269.385	0.33
269.756	0.31
270.127	0.32
270.498	0.43
270.87	0.44
271.241	0.47
271.612	0.44
271.983	0.41
272.354	0.48
272.724	0.52
273.095	0.61
273.466	0.66
273.837	0.67
274.208	0.75
274.578	0.81
274.949	0.83
275.32	0.84
275.69	0.9
276.061	0.88
276.431	0.89
276.802	0.88
277.172	0.93
277.542	0.95
277.913	0.93
278.283	0.89
278.653	0.93
279.023	0.95
279.394	0.92
279.764	0.89
280.134	0.87
280.504	0.87
280.874	0.79
281.244	0.75
281.614	0.71
281.983	0.65
282.353	0.61
282.723	0.58
283.093	0.59
283.462	0.45
283.832	0.44
284.202	0.37
284.571	0.37
284.941	0.37
285.31	0.34
285.68	0.33
286.049	0.3
286.418	0.29
286.788	0.36
287.157	0.38
287.526	0.34
287.895	0.33
288.264	0.31
288.633	0.38
289.002	0.3
289.371	0.26
289.74	0.22
290.109	0.19
290.478	0.21
290.847	0.18
291.216	0.14
291.585	0.08
291.953	0.08
292.322	-0.03
292.691	-0.04
293.059	-0.08
293.428	-0.05
293.796	-0.08
294.165	-0.13
294.533	-0.18
294.901	-0.2
295.27	-0.12
295.638	-0.13
296.006	-0.19
296.374	-0.18
296.743	-0.16
297.111	-0.16
297.479	-0.14
297.847	-0.18
298.215	-0.14
298.583	-0.16
298.95	-0.2
299.318	-0.13
299.686	-0.14
300.054	-0.09
300.422	-0.02
300.789	0.08
301.157	-0
301.525	0.05
301.892	0.12
302.26	0.1
302.627	0.04
302.994	0.09
303.362	0.1
303.729	0.15
304.097	0.17
304.464	0.14
304.831	0.11
305.198	0.1
305.565	0.09
305.932	0.06
306.299	0.01
306.666	-0.08
307.033	-0.14
307.4	-0.12
307.767	-0.04
308.134	0.03
308.501	0.08
308.867	0.07
309.234	0.01
309.601	0.03
309.967	-0.04
310.334	0.07
310.701	0.12
311.067	0.12
311.433	0.13
311.8	0.18
312.166	0.15
312.533	0.19
312.899	0.18
313.265	0.16
313.631	0.19
313.997	0.18
314.363	0.18
314.729	0.16
315.096	0.22
315.461	0.24
315.827	0.29
316.193	0.41
316.559	0.36
316.925	0.35
317.291	0.34
317.656	0.33
318.022	0.38
318.388	0.45
318.753	0.44
319.119	0.46
319.484	0.45
319.85	0.48
320.215	0.5
320.581	0.53
320.946	0.48
321.311	0.55
321.676	0.54
322.042	0.48
322.407	0.5
322.772	0.46
323.137	0.48
323.502	0.48
323.867	0.4
324.232	0.37
324.597	0.29
324.962	0.26
325.327	0.19
325.691	0.22
326.056	0.19
326.421	0.21
326.785	0.21
327.15	0.29
327.514	0.26
327.879	0.3
328.243	0.27
328.608	0.18
328.972	0.12
329.337	0.04
329.701	0.01
330.065	0.09
330.429	-0.02
330.794	-0.03
331.158	-0.03
331.522	-0.06
331.886	-0.04
332.25	-0.02
332.614	-0.06
332.978	0.02
333.342	-0
333.705	0.06
334.069	0.05
334.433	-0.01
334.797	0.03
335.16	0
335.524	-0.03
335.887	-0.08
336.251	-0.21
336.614	-0.19
336.978	-0.29
337.341	-0.29
337.705	-0.21
338.068	-0.2
338.431	-0.16
338.794	-0.18
339.158	-0.28
339.521	-0.22
339.884	-0.27
340.247	-0.2
340.61	-0.19
340.973	-0.25
341.336	-0.27
341.699	-0.3
342.062	-0.32
342.424	-0.31
342.787	-0.33
343.15	-0.33
343.512	-0.36
343.875	-0.44
344.238	-0.39
344.6	-0.38
344.963	-0.43
345.325	-0.41
345.688	-0.45
346.05	-0.45
346.412	-0.46
346.775	-0.47
347.137	-0.5
347.499	-0.45
347.861	-0.5
348.223	-0.51
348.585	-0.47
348.947	-0.49
349.309	-0.52
349.671	-0.48
350.033	-0.4
350.395	-0.36
350.757	-0.28
351.118	-0.25
351.48	-0.28
351.842	-0.16
352.203	-0.12
352.565	0
352.927	-0
353.288	0.01
353.65	0
354.011	0.07
354.372	0.08
354.734	0.15
355.095	0.21
355.456	0.26
355.817	0.22
356.179	0.17
356.54	0.18
356.901	0.31
357.262	0.34
357.623	0.32
357.984	0.34
358.345	0.33
358.705	0.3
359.066	0.25
359.427	0.16
359.788	0.04
360.148	0.04
360.509	0.1
360.87	0.02
361.23	0.06
361.591	0.1
361.951	0.13
362.312	0.11
362.672	0.12
363.032	0.11
363.393	0.13
363.753	0.11
364.113	0.11
364.473	0.11
364.833	0.15
365.193	0.16
365.553	0.15
365.913	0.06
366.273	0.16
366.633	0.14
366.993	0.13
367.353	0.17
367.713	0.11
368.072	0.1
368.432	0.26
368.792	0.36
369.151	0.39
369.511	0.36
369.87	0.41
370.23	0.37
370.589	0.27
370.949	0.22
371.308	0.24
371.667	0.27
372.027	0.29
372.386	0.32
372.745	0.29
373.104	0.19
373.463	0.12
373.822	0.07
374.181	0.17
374.54	0.17
374.899	0.21
375.258	0.16
375.617	0.24
375.975	0.26
376.334	0.15
376.693	0.12
377.052	0.2
377.41	0.12
377.769	0.05
378.127	0.09
378.486	0.08
378.844	-0.02
379.202	-0.02
379.561	-0.08
379.919	0.05
380.277	-0.08
380.636	-0.09
380.994	-0.06
381.352	-0.09
381.71	-0.07
382.068	0.01
382.426	0.03
382.784	0.08
383.142	-0.05
383.5	-0.04
383.857	0.03
384.215	0.08
384.573	-0
384.931	0.03
385.288	0.02
385.646	-0.01
386.003	-0.05
386.361	0.01
386.718	0.12
387.076	0.03
387.433	-0
387.791	0.1
388.148	0.03
388.505	0.01
388.862	-0.06
389.22	0.09
389.577	0.08
389.934	0.09
390.291	0.13
390.648	0.14
391.005	0.07
391.362	0.13
391.718	0.13
392.075	0.12
392.432	0.09
392.789	-0.05
393.145	-0.1
393.502	-0.15
393.859	-0.08
394.215	-0.06
394.572	0.04
394.928	-0.01
395.285	-0.08
395.641	-0.16
395.997	-0.16
396.354	-0.14
396.71	-0.22
397.066	-0.16
397.422	0.01
397.778	0.04
398.134	-0.07
398.491	-0.04
398.846	-0.05
399.202	-0.18
399.558	-0.23
399.914	-0.17
400.27	-0.23
400.626	-0.26
400.981	-0.2
401.337	-0.25
401.693	-0.18
402.048	-0.15
402.404	-0.07
402.759	-0.18
403.115	-0.04
403.47	-0.05
403.826	0.04
404.181	-0.03
404.536	-0.03
404.892	0.03
405.247	-0.03
405.602	0.02
405.957	-0.01
406.312	-0.05
406.667	-0.18
407.022	-0.11
407.377	-0.13
407.732	-0.13
408.087	-0.04
408.442	-0.02
408.796	-0.15
409.151	-0.07
409.506	-0.14
409.86	-0.17
410.215	-0.19
410.57	-0.22
410.924	-0.27
411.279	-0.34
411.633	-0.19
411.987	-0.3
412.342	-0.33
412.696	-0.46
413.05	-0.36
413.404	-0.43
413.758	-0.37
414.113	-0.32
414.467	-0.34
414.821	-0.33
415.175	-0.35
415.529	-0.23
415.882	-0.37
416.236	-0.43
416.59	-0.47
416.944	-0.53
417.298	-0.45
417.651	-0.41
418.005	-0.47
418.358	-0.34
418.712	-0.27
419.065	-0.24
419.419	-0.19
419.772	-0.17
420.126	-0.08
420.479	-0.16
420.832	-0.01
421.185	0.05
421.539	0.04
421.892	-0.06
422.245	0.06
422.598	0.03
422.951	0.07
423.304	0.17
423.657	0.23
424.01	0.19
424.363	0.26
424.715	0.37
425.068	0.43
425.421	0.46
425.773	0.49
426.126	0.48
426.479	0.51
426.831	0.6
427.184	0.62
427.536	0.71
427.889	0.76
428.241	0.72
428.593	0.76
428.945	0.78
429.298	0.73
429.65	0.45
430.002	0.55
430.354	0.6
430.706	0.67
431.058	0.68
431.41	0.74
431.762	0.8
432.114	0.7
432.466	0.62
432.817	0.57
433.169	0.4
433.521	0.45
433.872	0.51
434.224	0.43
434.576	0.44
434.927	0.34
435.279	0.46
435.63	0.35
435.981	0.24
436.333	0.07
436.684	0.03
437.035	0.02
437.387	0.05
437.738	0.04
438.089	0.14
438.44	0.33
438.791	0.2
439.142	0.31
439.493	0.36
439.844	0.38
440.195	0.3
440.545	0.29
440.896	0.37
441.247	0.45
441.598	0.52
441.948	0.55
442.299	0.56
442.649	0.53
443	0.63
443.35	0.62
443.701	0.58
444.051	0.54
444.401	0.7
444.752	0.69
445.102	0.77
445.452	0.83
445.802	0.84
446.152	0.8
446.502	0.76
446.852	0.76
447.202	0.65
447.552	0.77
447.902	0.77
448.252	0.79
448.602	0.87
448.952	0.91
449.301	0.9
449.651	0.81
450.001	0.79
450.35	0.9
450.7	0.94
451.049	0.9
451.399	0.91
451.748	0.87
452.097	0.89
452.447	0.98
452.796	0.93
453.145	0.84
453.494	0.95
453.843	0.95
454.193	0.95
454.542	1.05
454.891	1.06
455.239	1.07
455.588	1.02
455.937	1.12
456.286	1.23
456.635	1.17
456.984	1.23
457.332	1.06
457.681	1.04
458.03	1.07
458.378	1.14
458.727	1.17
459.075	1.1
459.423	1.23
459.772	1.27
460.12	1.32
460.468	1.39
460.817	1.55
461.165	1.65
461.513	1.62
461.861	1.73
462.209	1.74
462.557	1.78
462.905	1.78
463.253	1.7
463.601	1.76
463.949	1.86
464.297	1.92
464.644	2.04
464.992	1.98
465.34	2.04
465.687	2.08
466.035	2.17
466.383	2.19
466.73	2.24
467.078	2.15
467.425	2.15
467.772	2.22
468.12	2.13
468.467	2.1
468.814	2.03
469.161	1.97
469.508	1.75
469.856	1.57
470.203	1.57
470.55	1.42
470.897	1.42
471.243	1.39
471.59	1.33
471.937	1.37
472.284	1.43
472.631	1.36
472.977	1.26
473.324	1.19
473.671	1.17
474.017	1.12
474.364	1.08
474.71	1.06
475.057	1.06
475.403	1.03
475.749	1.19
476.096	1.18
476.442	1.09
476.788	1.15
477.134	1.16
477.48	1.15
477.826	1.15
478.172	1.26
478.518	1.37
478.864	1.45
479.21	1.48
479.556	1.41
479.902	1.4
480.248	1.47
480.593	1.44
480.939	1.39
481.285	1.43
481.63	1.52
481.976	1.56
482.321	1.55
482.667	1.64
483.012	1.69
483.357	1.67
483.703	1.66
484.048	1.7
484.393	1.8
484.738	1.88
485.084	1.99
485.429	2.12
485.774	2.29
486.119	2.45
486.464	2.62
486.808	2.73
487.153	2.92
487.498	3.06
487.843	3.21
488.188	3.52
488.532	3.7
488.877	3.89
489.222	4.12
489.566	4.39
489.911	4.64
490.255	4.88
490.6	5.17
490.944	5.45
491.288	5.61
491.633	5.84
491.977	6.19
492.321	6.61
492.665	6.92
493.009	7.11
493.353	7.47
493.697	7.87
494.041	8.21
494.385	8.57
494.729	8.98
495.073	9.44
495.417	9.92
495.76	10.34
496.104	10.75
496.448	11.23
496.791	11.58
497.135	12.12
497.479	12.7
497.822	13.23
498.165	13.83
498.509	14.46
498.852	15.11
499.196	15.71
499.539	16.39
499.882	17.08
500.225	17.78
500.568	18.39
500.911	19
501.254	19.65
501.597	20.39
501.94	20.99
502.283	21.58
502.626	22.19
502.969	22.78
503.312	23.4
503.654	24.01
503.997	24.59
504.34	25.21
504.682	26
505.025	26.68
505.367	27.42
505.71	28.08
506.052	28.77
506.395	29.41
506.737	30.03
507.079	30.66
507.421	31.25
507.764	31.91
508.106	32.51
508.448	33.26
508.79	33.81
509.132	34.42
509.474	35.01
509.816	35.56
510.158	36.03
510.499	36.7
510.841	37.29
511.183	37.85
511.525	38.41
511.866	38.94
512.208	39.63
512.549	40.25
512.891	40.81
513.232	41.29
513.574	41.87
513.915	42.44
514.256	43.03
514.598	43.37
514.939	43.88
515.28	44.35
515.621	44.8
515.962	45.27
516.303	45.69
516.644	46.02
516.985	46.39
517.326	46.86
517.667	47.09
518.008	47.44
518.349	47.9
518.69	48.44
519.03	48.67
519.371	49.01
519.712	49.39
520.052	49.6
520.393	49.95
520.733	50.31
521.074	50.49
521.414	50.85
521.754	51.06
522.095	51.26
522.435	51.39
522.775	51.62
523.115	52.18
523.455	52.37
523.795	52.54
524.135	52.62
524.475	52.93
524.815	53.04
525.155	53.23
525.495	53.33
525.835	53.37
526.175	53.73
526.514	54.02
526.854	54.11
527.194	54.17
527.533	54.4
527.873	54.63
528.212	54.78
528.552	55.2
528.891	55.32
529.23	55.18
529.57	55.44
529.909	55.38
530.248	55.66
530.587	55.83
530.927	56
531.266	56.09
531.605	55.96
531.944	56.05
532.283	56.2
532.621	56.51
532.96	56.6
533.299	56.96
533.638	57.28
533.977	57.65
534.315	57.81
534.654	57.97
534.992	58.13
535.331	58.18
535.67	58.34
536.008	58.56
536.346	58.53
536.685	58.57
537.023	58.38
537.361	58.5
537.7	58.69
538.038	58.86
538.376	59.12
538.714	59.14
539.052	59.26
539.39	59.55
539.728	59.71
540.066	59.9
540.404	60.22
540.741	60.26
541.079	60.4
541.417	60.36
541.755	60.24
542.092	60.15
542.43	59.9
542.767	59.93
543.105	59.95
543.442	59.9
543.78	60.07
544.117	60.02
544.454	59.89
544.792	60.08
545.129	60.18
545.466	60.52
545.803	60.64
546.14	60.55
546.477	60.63
546.814	60.65
547.151	60.66
547.488	60.73
547.825	60.67
548.162	60.5
548.499	60.62
548.835	60.56
549.172	60.53
549.509	60.53
549.845	60.67
550.182	60.79
550.518	60.8
550.855	60.95
551.191	61.02
551.528	60.85
551.864	60.8
552.2	60.8
552.537	60.96
552.873	61.13
553.209	61.04
553.545	61.11
553.881	61.02
554.217	61.07
554.553	61.53
554.889	61.49
555.225	61.43
555.561	61.47
555.896	61.31
556.232	61.31
556.568	61.25
556.903	61.25
557.239	61.3
557.575	61.36
557.91	61.28
558.245	61.35
558.581	61.6
558.916	61.63
559.252	61.73
559.587	61.79
559.922	62.12
560.257	62.41
560.592	62.5
560.928	62.54
561.263	62.61
561.598	62.91
561.933	62.93
562.267	63.11
562.602	63.05
562.937	62.77
563.272	62.83
563.607	63.17
563.941	63.35
564.276	63.47
564.611	63.69
564.945	63.91
565.28	63.74
565.614	63.7
565.949	63.79
566.283	63.99
566.617	63.99
566.951	63.83
567.286	64.13
567.62	64.21
567.954	64.51
568.288	64.5
568.622	64.41
568.956	64.47
569.29	64.38
569.624	64.36
569.958	64.22
570.292	64.31
570.626	64.22
570.959	64.4
571.293	64.54
571.627	64.52
571.96	64.37
572.294	64.27
572.627	64.31
572.961	64.22
573.294	64.24
573.627	64.31
573.961	64.37
574.294	64.52
574.627	64.46
574.961	64.47
575.294	64.45
575.627	64.28
575.96	64.19
576.293	64.03
576.626	63.98
576.959	63.9
577.292	63.95
577.624	63.95
577.957	64.01
578.29	64.23
578.623	64.2
578.955	64.25
579.288	64.23
579.62	64.22
579.953	64.34
580.285	64.37
580.618	64.43
580.95	64.62
581.282	64.59
581.615	64.72
581.947	64.77
582.279	64.69
582.611	64.68
582.943	64.66
583.275	64.64
583.607	64.74
583.939	64.79
584.271	64.78
584.603	64.83
584.935	64.9
585.267	65.03
585.598	64.98
585.93	65.13
586.262	65.24
586.593	65.15
586.925	65.05
587.256	65.12
587.588	64.96
587.919	65.02
588.25	64.86
588.582	64.86
588.913	64.95
589.244	64.75
589.575	64.99
589.907	65
590.238	65
590.569	65.09
590.9	65.13
591.231	65.16
591.562	65.37
591.892	65.42
592.223	65.56
592.554	65.73
592.885	65.83
593.215	65.81
593.546	65.85
593.877	65.74
594.207	65.76
594.538	65.72
594.868	65.67
595.198	65.88
595.529	65.9
595.859	66.03
596.189	66.01
596.52	66.1
596.85	66.31
597.18	66.29
597.51	66.27
597.84	66.08
598.17	66.01
598.5	66.05
598.83	66.07
599.16	65.97
599.489	65.82
599.819	65.76
600.149	65.79
600.479	65.46
600.808	65.39
601.138	65.2
601.467	65.2
601.797	65.13
602.126	65.13
602.456	65.1
602.785	65.13
603.114	65.19
603.443	65.09
603.773	65.14
604.102	65.1
604.431	65.05
604.76	64.9
605.089	64.7
605.418	64.67
605.747	64.6
606.076	64.56
606.405	64.54
606.733	64.69
607.062	64.54
607.391	64.5
607.72	64.78
608.048	64.59
608.377	64.43
608.705	64.6
609.034	64.6
609.362	64.69
609.69	64.73
610.019	64.98
610.347	65.15
610.675	65.19
611.004	64.99
611.332	64.94
611.66	64.87
611.988	64.62
612.316	64.64
612.644	64.54
612.972	64.83
613.3	64.75
613.627	64.82
613.955	65.03
614.283	64.98
614.611	65.03
614.938	64.91
615.266	65.18
615.593	65.29
615.921	65.1
616.248	65.3
616.576	65.35
616.903	65.4
617.23	64.98
617.558	65.11
617.885	65.26
618.212	64.9
618.539	64.57
618.866	64.85
619.193	64.84
619.52	64.83
619.847	64.64
620.174	64.7
620.501	64.87
620.828	64.9
621.155	64.74
621.481	64.6
621.808	64.58
622.135	64.48
622.461	64.81
622.788	64.87
623.114	64.7
623.441	64.63
623.767	64.67
624.093	64.84
624.42	64.71
624.746	65.06
625.072	65.48
625.398	65.79
625.725	65.81
626.051	65.61
626.377	65.76
626.703	66.01
627.029	65.67
627.354	65.8
627.68	65.75
628.006	66.17
628.332	66
628.658	65.98
628.983	66.62
629.309	66.57
629.634	66.99
629.96	66.59
630.285	66.71
630.611	66.28
630.936	66.31
631.262	66.36
631.587	66.73
631.912	66.61
632.237	66.49
632.562	66.35
632.887	65.7
633.213	65.42
633.538	65.57
633.863	65.25
634.187	65.68
634.512	65.78
634.837	65.74
635.162	65.41
635.487	65.45
635.811	65.33
636.136	65.86
636.461	66.64
636.785	66.36
637.11	66.03
637.434	66.54
637.758	66.85
638.083	66.95
638.407	67.42
638.731	67.88
639.056	67.9
639.38	67.95
639.704	68.27
640.028	68.25
640.352	68.02
640.676	67.85
641	68.15
641.324	68.9
641.648	68.87
641.972	68.97
642.295	68.61
642.619	69.25
642.943	68.85
643.266	68.81
643.59	68.89
643.913	69.47
644.237	68.88
644.56	68.46
644.884	68.28
645.207	67.99
645.53	67.85
645.854	68.26
646.177	68.48
646.5	68.27
646.823	68.26
647.146	68.16
647.469	68.52
647.792	68.36
648.115	68.29
648.438	68.49
648.761	69.56
649.084	68.46
649.406	67.29
649.729	66.56
650.052	66.3
650.374	66.35
650.697	65.83
651.019	66.05
651.342	66.37
651.664	66.36
651.987	66.21
652.309	66.3
652.631	66.46
652.953	66.48
653.276	66.36
653.598	66.21
653.92	66.23
654.242	66.49
654.564	66.22
654.886	66.26
655.208	66.16
655.53	66.14
655.851	66.19
656.173	66.24
656.495	66.39
656.816	66.09
657.138	66.34
657.46	66.87
657.781	68.34
658.103	68.79
658.424	69.39
658.746	70.47
659.067	70.38
659.388	69.95
659.709	69.67
660.031	70.04
660.352	69.88
660.673	69.27
660.994	69.33
661.315	70.23
