Data from T1_Reflection__32__17-20-04-682.txt Node

Date: Wed Jun 02 17:20:04 CEST 2021
User: mabdelazizm
Spectrometer: FLMS18565
Trigger mode: 0
Integration Time (sec): 2.000000E0
Scans to average: 1
Electric dark correction enabled: true
Nonlinearity correction enabled: false
Boxcar width: 12
XAxis mode: Wavelengths
Number of Pixels in Spectrum: 2048
>>>>>Begin Spectral Data<<<<<
179.071	50.71
179.452	-15.7
179.833	-348.48
180.214	28.57
180.595	-1221.21
180.977	168.44
181.358	246.34
181.739	270.67
182.12	131.36
182.501	109.3
182.882	87.7
183.262	91.41
183.643	393.54
184.024	66.6
184.405	49.18
184.786	46.17
185.166	37.85
185.547	32.41
185.927	33.68
186.308	32.41
186.689	28.14
187.069	28.67
187.449	27.19
187.83	25.74
188.21	19.7
188.59	19.74
188.971	16.66
189.351	14.09
189.731	13.53
190.111	15.36
190.491	17.72
190.871	13.79
191.251	16.18
191.631	15.6
192.011	15.04
192.391	15.43
192.771	16.48
193.151	15.36
193.531	9.63
193.91	9.65
194.29	8.39
194.67	7.84
195.049	7.01
195.429	6.03
195.808	6.15
196.188	6.78
196.567	6.01
196.946	6.66
197.326	7.4
197.705	6
198.084	7.12
198.464	6.86
198.843	7.96
199.222	9.8
199.601	8.85
199.98	7.85
200.359	8.01
200.738	7.37
201.117	6.73
201.496	6.83
201.875	6.51
202.254	4.28
202.632	4.72
203.011	6.04
203.39	4.85
203.768	5.29
204.147	5.67
204.525	5.18
204.904	5.54
205.282	5.33
205.661	4.26
206.039	4.66
206.418	3.41
206.796	2.99
207.174	4.12
207.552	3.83
207.931	4.09
208.309	3.42
208.687	2.74
209.065	3.81
209.443	4.01
209.821	4.38
210.199	4.51
210.577	3.69
210.954	2.91
211.332	2.42
211.71	3.16
212.088	3.7
212.465	2.78
212.843	2.84
213.221	2.96
213.598	2.75
213.976	2.91
214.353	2.08
214.731	1.7
215.108	2.37
215.485	2.02
215.863	2.01
216.24	2.43
216.617	2.89
216.994	2.47
217.371	2.67
217.749	2.47
218.126	2.13
218.503	1.94
218.88	1.8
219.256	1.71
219.633	1.84
220.01	2.47
220.387	3.02
220.764	3.67
221.14	3.96
221.517	3.51
221.894	3.43
222.27	3.61
222.647	3.39
223.023	3.19
223.4	3.15
223.776	3.21
224.153	3.26
224.529	3.11
224.905	3.32
225.282	3.49
225.658	3.35
226.034	2.93
226.41	3.06
226.786	2.82
227.162	2.8
227.538	2.83
227.914	2.59
228.29	2.35
228.666	2.33
229.042	2.07
229.418	1.8
229.793	1.77
230.169	1.65
230.545	1.37
230.92	1.18
231.296	1.14
231.672	1.09
232.047	0.97
232.422	1.05
232.798	0.91
233.173	0.69
233.549	0.67
233.924	0.52
234.299	0.46
234.674	0.39
235.05	0.25
235.425	0.19
235.8	0.17
236.175	0.23
236.55	0.15
236.925	-0.01
237.3	0.15
237.675	0.26
238.049	0.29
238.424	0.34
238.799	0.38
239.174	0.31
239.548	0.46
239.923	0.49
240.297	0.57
240.672	0.54
241.046	0.6
241.421	0.71
241.795	0.51
242.17	0.58
242.544	0.67
242.918	0.52
243.293	0.5
243.667	0.43
244.041	0.49
244.415	0.51
244.789	0.63
245.163	0.58
245.537	0.49
245.911	0.56
246.285	0.62
246.659	0.51
247.033	0.53
247.406	0.46
247.78	0.35
248.154	0.42
248.528	0.47
248.901	0.38
249.275	0.38
249.648	0.42
250.022	0.42
250.395	0.42
250.769	0.35
251.142	0.38
251.515	0.39
251.888	0.43
252.262	0.57
252.635	0.65
253.008	0.65
253.381	0.63
253.754	0.66
254.127	0.63
254.5	0.64
254.873	0.71
255.246	0.73
255.619	0.7
255.992	0.69
256.364	0.61
256.737	0.67
257.11	0.78
257.483	0.74
257.855	0.74
258.228	0.79
258.6	0.78
258.973	0.83
259.345	0.87
259.718	0.84
260.09	0.84
260.462	0.92
260.834	0.93
261.207	0.93
261.579	0.9
261.951	0.85
262.323	0.9
262.695	0.87
263.067	0.8
263.439	0.69
263.811	0.68
264.183	0.62
264.555	0.64
264.927	0.7
265.298	0.7
265.67	0.75
266.042	0.68
266.413	0.62
266.785	0.62
267.156	0.58
267.528	0.46
267.899	0.42
268.271	0.32
268.642	0.29
269.013	0.34
269.385	0.35
269.756	0.37
270.127	0.37
270.498	0.45
270.87	0.46
271.241	0.47
271.612	0.46
271.983	0.47
272.354	0.48
272.724	0.62
273.095	0.67
273.466	0.73
273.837	0.67
274.208	0.69
274.578	0.64
274.949	0.62
275.32	0.62
275.69	0.68
276.061	0.69
276.431	0.68
276.802	0.73
277.172	0.77
277.542	0.74
277.913	0.77
278.283	0.74
278.653	0.72
279.023	0.66
279.394	0.62
279.764	0.53
280.134	0.47
280.504	0.46
280.874	0.33
281.244	0.26
281.614	0.28
281.983	0.19
282.353	0.24
282.723	0.21
283.093	0.19
283.462	0.1
283.832	0.13
284.202	0.13
284.571	0.13
284.941	0.08
285.31	0.03
285.68	0.04
286.049	0.02
286.418	0.01
286.788	0.15
287.157	0.11
287.526	0.06
287.895	0.05
288.264	0.05
288.633	0.06
289.002	0
289.371	0
289.74	-0.03
290.109	0.01
290.478	0.08
290.847	0.08
291.216	0.06
291.585	-0.08
291.953	-0.15
292.322	-0.18
292.691	-0.2
293.059	-0.21
293.428	-0.23
293.796	-0.25
294.165	-0.29
294.533	-0.24
294.901	-0.27
295.27	-0.33
295.638	-0.35
296.006	-0.46
296.374	-0.43
296.743	-0.41
297.111	-0.43
297.479	-0.4
297.847	-0.39
298.215	-0.36
298.583	-0.39
298.95	-0.46
299.318	-0.44
299.686	-0.53
300.054	-0.5
300.422	-0.47
300.789	-0.41
301.157	-0.39
301.525	-0.31
301.892	-0.3
302.26	-0.32
302.627	-0.35
302.994	-0.4
303.362	-0.33
303.729	-0.34
304.097	-0.28
304.464	-0.26
304.831	-0.25
305.198	-0.3
305.565	-0.31
305.932	-0.27
306.299	-0.23
306.666	-0.27
307.033	-0.28
307.4	-0.25
307.767	-0.25
308.134	-0.19
308.501	-0.14
308.867	-0.12
309.234	-0.17
309.601	-0.13
309.967	-0.17
310.334	-0.1
310.701	-0.13
311.067	-0.17
311.433	-0.17
311.8	-0.1
312.166	0
312.533	0
312.899	-0.04
313.265	-0.05
313.631	0.03
313.997	-0.02
314.363	0.03
314.729	0.01
315.096	-0.07
315.461	-0.08
315.827	-0.09
316.193	-0.04
316.559	-0.08
316.925	-0.02
317.291	0
317.656	-0.04
318.022	0.02
318.388	0.06
318.753	0.03
319.119	0.1
319.484	0.09
319.85	0.15
320.215	0.24
320.581	0.25
320.946	0.2
321.311	0.21
321.676	0.17
322.042	0.2
322.407	0.14
322.772	0.15
323.137	0.26
323.502	0.26
323.867	0.17
324.232	0.2
324.597	0.15
324.962	0.15
325.327	0.11
325.691	0.09
326.056	0.07
326.421	0.03
326.785	0.02
327.15	0.05
327.514	0.06
327.879	0.09
328.243	0.04
328.608	-0.03
328.972	-0.08
329.337	-0.09
329.701	-0.16
330.065	-0.15
330.429	-0.2
330.794	-0.2
331.158	-0.26
331.522	-0.21
331.886	-0.3
332.25	-0.31
332.614	-0.37
332.978	-0.3
333.342	-0.31
333.705	-0.22
334.069	-0.19
334.433	-0.2
334.797	-0.18
335.16	-0.17
335.524	-0.09
335.887	-0.07
336.251	-0.21
336.614	-0.26
336.978	-0.34
337.341	-0.32
337.705	-0.23
338.068	-0.19
338.431	-0.18
338.794	-0.1
339.158	-0.12
339.521	-0.18
339.884	-0.21
340.247	-0.15
340.61	-0.18
340.973	-0.19
341.336	-0.22
341.699	-0.23
342.062	-0.21
342.424	-0.24
342.787	-0.32
343.15	-0.3
343.512	-0.39
343.875	-0.43
344.238	-0.47
344.6	-0.53
344.963	-0.52
345.325	-0.47
345.688	-0.48
346.05	-0.5
346.412	-0.51
346.775	-0.56
347.137	-0.63
347.499	-0.58
347.861	-0.6
348.223	-0.59
348.585	-0.52
348.947	-0.51
349.309	-0.52
349.671	-0.46
350.033	-0.4
350.395	-0.46
350.757	-0.38
351.118	-0.35
351.48	-0.31
351.842	-0.29
352.203	-0.28
352.565	-0.14
352.927	-0.08
353.288	-0.1
353.65	-0.03
354.011	-0.02
354.372	-0.01
354.734	0.05
355.095	0.14
355.456	0.15
355.817	0.11
356.179	0.17
356.54	0.12
356.901	0.11
357.262	0.15
357.623	0.11
357.984	0.17
358.345	0.19
358.705	0.16
359.066	0.05
359.427	-0
359.788	-0.08
360.148	-0.02
360.509	-0.02
360.87	-0.01
361.23	-0.07
361.591	-0.08
361.951	-0.11
362.312	-0.1
362.672	-0.26
363.032	-0.32
363.393	-0.27
363.753	-0.2
364.113	-0.15
364.473	-0.16
364.833	-0.15
365.193	-0.26
365.553	-0.26
365.913	-0.23
366.273	-0.18
366.633	-0.13
366.993	-0.25
367.353	-0.23
367.713	-0.28
368.072	-0.27
368.432	-0.16
368.792	-0.13
369.151	-0.23
369.511	-0.2
369.87	-0.15
370.23	-0.15
370.589	-0.27
370.949	-0.29
371.308	-0.21
371.667	-0.12
372.027	-0.14
372.386	-0.16
372.745	-0.24
373.104	-0.39
373.463	-0.44
373.822	-0.41
374.181	-0.32
374.54	-0.34
374.899	-0.34
375.258	-0.42
375.617	-0.45
375.975	-0.37
376.334	-0.44
376.693	-0.48
377.052	-0.41
377.41	-0.44
377.769	-0.47
378.127	-0.51
378.486	-0.53
378.844	-0.62
379.202	-0.59
379.561	-0.53
379.919	-0.47
380.277	-0.59
380.636	-0.52
380.994	-0.43
381.352	-0.48
381.71	-0.42
382.068	-0.3
382.426	-0.23
382.784	-0.23
383.142	-0.31
383.5	-0.29
383.857	-0.22
384.215	-0.22
384.573	-0.28
384.931	-0.29
385.288	-0.4
385.646	-0.41
386.003	-0.37
386.361	-0.34
386.718	-0.22
387.076	-0.22
387.433	-0.3
387.791	-0.25
388.148	-0.25
388.505	-0.24
388.862	-0.28
389.22	-0.1
389.577	-0.17
389.934	-0.16
390.291	-0.08
390.648	-0.13
391.005	-0.21
391.362	-0.17
391.718	-0.18
392.075	-0.19
392.432	-0.25
392.789	-0.32
393.145	-0.36
393.502	-0.29
393.859	-0.19
394.215	-0.07
394.572	-0.03
394.928	-0.1
395.285	-0.11
395.641	-0.11
395.997	-0.09
396.354	-0.01
396.71	0.04
397.066	0.04
397.422	0.13
397.778	0.09
398.134	-0.11
398.491	-0.1
398.846	-0.08
399.202	-0.08
399.558	-0.05
399.914	-0.03
400.27	-0.14
400.626	-0.21
400.981	-0.23
401.337	-0.22
401.693	-0.17
402.048	-0.07
402.404	-0.08
402.759	-0.12
403.115	-0.12
403.47	-0.08
403.826	-0.06
404.181	-0.13
404.536	-0.24
404.892	-0.14
405.247	-0.16
405.602	-0.17
405.957	-0.19
406.312	-0.35
406.667	-0.4
407.022	-0.3
407.377	-0.31
407.732	-0.4
408.087	-0.44
408.442	-0.49
408.796	-0.59
409.151	-0.56
409.506	-0.5
409.86	-0.5
410.215	-0.51
410.57	-0.56
410.924	-0.7
411.279	-0.72
411.633	-0.74
411.987	-0.82
412.342	-0.84
412.696	-0.85
413.05	-0.79
413.404	-0.79
413.758	-0.75
414.113	-0.76
414.467	-0.85
414.821	-0.82
415.175	-0.72
415.529	-0.64
415.882	-0.81
416.236	-0.88
416.59	-0.93
416.944	-0.89
417.298	-0.82
417.651	-0.66
418.005	-0.65
418.358	-0.57
418.712	-0.5
419.065	-0.5
419.419	-0.49
419.772	-0.36
420.126	-0.29
420.479	-0.27
420.832	-0.12
421.185	-0.13
421.539	-0.15
421.892	-0.2
422.245	-0.13
422.598	-0.21
422.951	-0.13
423.304	0.04
423.657	0.09
424.01	-0.06
424.363	-0
424.715	0.17
425.068	0.31
425.421	0.32
425.773	0.28
426.126	0.33
426.479	0.32
426.831	0.47
427.184	0.45
427.536	0.44
427.889	0.52
428.241	0.54
428.593	0.51
428.945	0.55
429.298	0.5
429.65	0.41
430.002	0.56
430.354	0.71
430.706	0.68
431.058	0.71
431.41	0.79
431.762	0.88
432.114	0.73
432.466	0.63
432.817	0.77
433.169	0.71
433.521	0.79
433.872	0.77
434.224	0.88
434.576	0.94
434.927	0.81
435.279	0.72
435.63	0.5
435.981	0.48
436.333	0.46
436.684	0.5
437.035	0.41
437.387	0.41
437.738	0.38
438.089	0.37
438.44	0.37
438.791	0.26
439.142	0.23
439.493	0.26
439.844	0.21
440.195	0.12
440.545	-0.03
440.896	0.03
441.247	0.12
441.598	0.06
441.948	0.1
442.299	-0
442.649	-0.13
443	-0.16
443.35	-0.2
443.701	-0.14
444.051	-0.06
444.401	0.13
444.752	0.1
445.102	0.11
445.452	0.11
445.802	0.16
446.152	0.19
446.502	0.23
446.852	0.22
447.202	0.2
447.552	0.34
447.902	0.27
448.252	0.34
448.602	1.75
448.952	1.84
449.301	1.89
449.651	1.83
450.001	1.81
450.35	1.94
450.7	1.95
451.049	1.99
451.399	2.11
451.748	2.12
452.097	2.18
452.447	2.14
452.796	2.09
453.145	1.93
453.494	2.02
453.843	2.05
454.193	2.05
454.542	2.11
454.891	2.17
455.239	2.14
455.588	2.17
455.937	2.19
456.286	2.13
456.635	2.17
456.984	2.12
457.332	0.52
457.681	0.39
458.03	0.39
458.378	0.39
458.727	0.42
459.075	0.39
459.423	0.45
459.772	0.49
460.12	0.55
460.468	0.64
460.817	0.71
461.165	0.8
461.513	0.76
461.861	0.93
462.209	1.05
462.557	1.1
462.905	1
463.253	1.06
463.601	1.02
463.949	1
464.297	1.14
464.644	1.28
464.992	1.34
465.34	1.34
465.687	1.45
466.035	1.51
466.383	1.54
466.73	1.48
467.078	1.43
467.425	1.45
467.772	1.46
468.12	1.45
468.467	1.44
468.814	1.44
469.161	1.36
469.508	1.15
469.856	1.11
470.203	1.15
470.55	1.04
470.897	0.93
471.243	0.85
471.59	0.85
471.937	0.8
472.284	0.87
472.631	0.86
472.977	0.82
473.324	0.75
473.671	0.65
474.017	0.63
474.364	0.56
474.71	0.49
475.057	0.62
475.403	0.7
475.749	0.77
476.096	0.72
476.442	0.79
476.788	0.82
477.134	0.78
477.48	0.76
477.826	0.76
478.172	0.84
478.518	0.84
478.864	0.84
479.21	0.91
479.556	0.89
479.902	0.89
480.248	0.92
480.593	0.87
480.939	0.81
481.285	0.8
481.63	0.77
481.976	0.83
482.321	0.85
482.667	0.99
483.012	1.06
483.357	1.06
483.703	1.08
484.048	1.18
484.393	1.28
484.738	1.36
485.084	1.35
485.429	1.37
485.774	1.56
486.119	1.59
486.464	1.75
486.808	1.89
487.153	1.97
487.498	2.11
487.843	2.18
488.188	2.39
488.532	2.58
488.877	2.76
489.222	3.01
489.566	3.29
489.911	3.51
490.255	3.78
490.6	4.07
490.944	4.31
491.288	4.44
491.633	4.67
491.977	5.07
492.321	5.43
492.665	5.67
493.009	6
493.353	6.37
493.697	6.75
494.041	7.19
494.385	7.52
494.729	8.09
495.073	8.59
495.417	9.09
495.76	9.65
496.104	10.21
496.448	10.75
496.791	11.29
497.135	11.86
497.479	12.45
497.822	13.1
498.165	13.72
498.509	14.48
498.852	15.24
499.196	15.92
499.539	16.65
499.882	17.43
500.225	18.31
500.568	18.96
500.911	19.56
501.254	20.28
501.597	21.1
501.94	21.82
502.283	22.49
502.626	23.16
502.969	23.93
503.312	24.62
503.654	25.3
503.997	25.95
504.34	26.67
504.682	27.36
505.025	28.17
505.367	28.83
505.71	29.54
506.052	30.31
506.395	30.86
506.737	31.48
507.079	32.21
507.421	32.82
507.764	33.47
508.106	34.14
508.448	34.77
508.79	35.25
509.132	35.93
509.474	36.59
509.816	37.19
510.158	37.72
510.499	38.38
510.841	39.13
511.183	39.61
511.525	40.16
511.866	40.69
512.208	41.34
512.549	41.96
512.891	42.52
513.232	43.02
513.574	43.52
513.915	44.1
514.256	44.68
514.598	45.24
514.939	45.86
515.28	46.39
515.621	46.75
515.962	47.1
516.303	47.59
516.644	47.99
516.985	48.53
517.326	49.05
517.667	49.35
518.008	49.75
518.349	50.29
518.69	50.78
519.03	50.94
519.371	51.27
519.712	51.75
520.052	51.92
520.393	52.27
520.733	52.4
521.074	52.62
521.414	53.03
521.754	53.35
522.095	53.61
522.435	54.07
522.775	54.37
523.115	54.61
523.455	54.87
523.795	55.03
524.135	55.21
524.475	55.5
524.815	55.71
525.155	56.07
525.495	56.21
525.835	56.41
526.175	56.68
526.514	57.03
526.854	57.02
527.194	57.12
527.533	57.59
527.873	57.84
528.212	58.09
528.552	58.61
528.891	58.77
529.23	59.03
529.57	59.34
529.909	59.28
530.248	59.44
530.587	59.66
530.927	59.67
531.266	59.76
531.605	59.93
531.944	60.06
532.283	60.41
532.621	60.6
532.96	61.05
533.299	61.23
533.638	61.5
533.977	61.92
534.315	62.04
534.654	62.38
534.992	62.58
535.331	62.7
535.67	62.86
536.008	63.07
536.346	63.16
536.685	63.21
537.023	63.04
537.361	63.29
537.7	63.41
538.038	63.53
538.376	63.83
538.714	64.13
539.052	64.25
539.39	64.25
539.728	64.4
540.066	64.62
540.404	64.91
540.741	64.91
541.079	65.13
541.417	64.87
541.755	64.99
542.092	64.97
542.43	64.63
542.767	64.73
543.105	64.61
543.442	64.62
543.78	64.82
544.117	65.09
544.454	64.87
544.792	64.9
545.129	65.1
545.466	65.5
545.803	65.54
546.14	65.43
546.477	65.56
546.814	65.74
547.151	65.65
547.488	65.76
547.825	65.83
548.162	65.76
548.499	65.79
548.835	65.78
549.172	65.81
549.509	65.61
549.845	65.74
550.182	65.62
550.518	65.59
550.855	65.81
551.191	65.8
551.528	65.86
551.864	65.76
552.2	65.61
552.537	65.44
552.873	65.79
553.209	65.79
553.545	65.7
553.881	65.54
554.217	65.51
554.553	65.98
554.889	65.97
555.225	65.75
555.561	65.78
555.896	65.64
556.232	65.67
556.568	65.78
556.903	65.76
557.239	65.72
557.575	65.85
557.91	66.16
558.245	66.29
558.581	66.56
558.916	66.75
559.252	66.74
559.587	66.69
559.922	66.9
560.257	67.13
560.592	67.31
560.928	67.49
561.263	67.45
561.598	67.54
561.933	67.76
562.267	67.91
562.602	68.08
562.937	67.71
563.272	67.87
563.607	68.28
563.941	68.43
564.276	68.62
564.611	69.06
564.945	69.23
565.28	69.27
565.614	69.26
565.949	69.28
566.283	69.35
566.617	69.39
566.951	69.42
567.286	69.59
567.62	69.7
567.954	69.89
568.288	69.82
568.622	69.68
568.956	69.58
569.29	69.64
569.624	69.67
569.958	69.81
570.292	69.75
570.626	69.7
570.959	69.69
571.293	70.04
571.627	69.94
571.96	69.79
572.294	69.69
572.627	69.71
572.961	69.5
573.294	69.51
573.627	69.43
573.961	69.43
574.294	69.6
574.627	69.59
574.961	69.61
575.294	69.66
575.627	69.55
575.96	69.53
576.293	69.48
576.626	69.52
576.959	69.53
577.292	69.68
577.624	69.64
577.957	69.72
578.29	69.89
578.623	70.04
578.955	70.11
579.288	70.21
579.62	70.09
579.953	70.15
580.285	70.21
580.618	70.47
580.95	70.58
581.282	70.68
581.615	70.77
581.947	70.97
582.279	70.97
582.611	70.96
582.943	70.88
583.275	70.91
583.607	70.91
583.939	70.94
584.271	70.87
584.603	70.9
584.935	70.98
585.267	71.15
585.598	71.23
585.93	71.39
586.262	71.39
586.593	71.29
586.925	71.08
587.256	71.05
587.588	70.86
587.919	70.86
588.25	70.81
588.582	70.83
588.913	70.74
589.244	70.69
589.575	70.71
589.907	70.75
590.238	70.72
590.569	70.93
590.9	71.1
591.231	71.27
591.562	71.25
591.892	71.22
592.223	71.32
592.554	71.47
592.885	71.51
593.215	71.37
593.546	71.32
593.877	71.22
594.207	71
594.538	70.86
594.868	70.81
595.198	71
595.529	70.99
595.859	71.14
596.189	71.29
596.52	71.52
596.85	71.71
597.18	71.8
597.51	71.71
597.84	71.64
598.17	71.56
598.5	71.53
598.83	71.35
599.16	71.1
599.489	71.07
599.819	71.17
600.149	71.22
600.479	71.08
600.808	71.15
601.138	71.18
601.467	71.23
601.797	71.17
602.126	71.21
602.456	71.38
602.785	71.67
603.114	71.56
603.443	71.37
603.773	71.57
604.102	71.46
604.431	71.33
604.76	71.17
605.089	70.85
605.418	70.73
605.747	70.63
606.076	70.61
606.405	70.7
606.733	70.79
607.062	70.87
607.391	70.9
607.72	70.98
608.048	70.96
608.377	71.03
608.705	70.86
609.034	70.69
609.362	70.7
609.69	70.76
610.019	70.92
610.347	70.96
610.675	70.89
611.004	70.73
611.332	70.89
611.66	71.14
611.988	70.98
612.316	71
612.644	71
612.972	71.02
613.3	71.02
613.627	71.07
613.955	71.41
614.283	71.31
614.611	71.21
614.938	71.35
615.266	71.6
615.593	71.63
615.921	71.67
616.248	71.69
616.576	71.41
616.903	72.08
617.23	72
617.558	72.32
617.885	72.29
618.212	72.05
618.539	71.85
618.866	72.13
619.193	71.96
619.52	71.88
619.847	71.63
620.174	71.99
620.501	72.39
620.828	72.3
621.155	72.54
621.481	72.66
621.808	72.71
622.135	72.5
622.461	73.08
622.788	73.1
623.114	72.78
623.441	72.8
623.767	72.82
624.093	72.78
624.42	72.67
624.746	73.25
625.072	72.94
625.398	73.71
625.725	73.63
626.051	73.53
626.377	74.12
626.703	74.6
627.029	74.05
627.354	74.22
627.68	74.17
628.006	74.38
628.332	73.59
628.658	73.64
628.983	73.87
629.309	73.57
629.634	74.13
629.96	74.36
630.285	74.53
630.611	74.39
630.936	74.74
631.262	75.08
631.587	74.68
631.912	74.81
632.237	74.92
632.562	75.11
632.887	74.74
633.213	74.97
633.538	74.57
633.863	74.29
634.187	75.09
634.512	74.64
634.837	74.13
635.162	74.52
635.487	74.9
635.811	74.7
636.136	75.27
636.461	75.79
636.785	75.11
637.11	75.39
637.434	75.72
637.758	75.06
638.083	74.99
638.407	75.33
638.731	75.45
639.056	75.08
639.38	74.74
639.704	75.34
640.028	75.39
640.352	75.43
640.676	75.54
641	75.95
641.324	75.22
641.648	74.75
641.972	74.67
642.295	74.14
642.619	74.29
642.943	74.49
643.266	73.82
643.59	73.63
643.913	74.2
644.237	73.43
644.56	73.77
644.884	73.9
645.207	73.99
645.53	74.31
645.854	75.13
646.177	74.95
646.5	74.73
646.823	74.83
647.146	74.91
647.469	74.95
647.792	74.6
648.115	74.67
648.438	74.83
648.761	75.23
649.084	75.02
649.406	74.17
649.729	73.17
650.052	72.93
650.374	72.87
650.697	72.87
651.019	72.94
651.342	73.06
651.664	73.05
651.987	72.92
652.309	72.98
652.631	72.96
652.953	72.77
653.276	72.7
653.598	72.51
653.92	72.41
654.242	72.63
654.564	72.59
654.886	72.5
655.208	72.6
655.53	72.71
655.851	72.78
656.173	72.74
656.495	72.83
656.816	72.39
657.138	72.01
657.46	72.65
657.781	74.09
658.103	74.73
