Data from T1_Reflection__27__17-17-14-688.txt Node

Date: Wed Jun 02 17:17:14 CEST 2021
User: mabdelazizm
Spectrometer: FLMS18565
Trigger mode: 0
Integration Time (sec): 2.000000E0
Scans to average: 1
Electric dark correction enabled: true
Nonlinearity correction enabled: false
Boxcar width: 12
XAxis mode: Wavelengths
Number of Pixels in Spectrum: 2048
>>>>>Begin Spectral Data<<<<<
179.071	246.69
179.452	537.19
179.833	4684.85
180.214	628.57
180.595	-6466.67
180.977	419.01
181.358	1007.8
181.739	733.33
182.12	501.34
182.501	505.65
182.882	219.59
183.262	267.48
183.643	1474.52
184.024	-147.27
184.405	-38.08
184.786	-2.33
185.166	0.18
185.547	1.68
185.927	-0.85
186.308	3.75
186.689	7.01
187.069	6.52
187.449	3.38
187.83	7.81
188.21	1.85
188.59	1.46
188.971	-2.4
189.351	-3.59
189.731	0.74
190.111	0.71
190.491	2.13
190.871	1.64
191.251	0.1
191.631	2.41
192.011	2.32
192.391	5.04
192.771	7.2
193.151	9.36
193.531	5.83
193.91	6.72
194.29	5.93
194.67	5.39
195.049	7.36
195.429	7.42
195.808	5.09
196.188	4.73
196.567	6.47
196.946	5.79
197.326	5.74
197.705	5
198.084	4.88
198.464	5.56
198.843	8.65
199.222	9.81
199.601	10.58
199.98	9.47
200.359	9.78
200.738	11.19
201.117	9.9
201.496	11.12
201.875	10.18
202.254	8.14
202.632	7.8
203.011	9.02
203.39	7.66
203.768	7.26
204.147	7.17
204.525	6.46
204.904	6.42
205.282	7.44
205.661	7.28
206.039	6.99
206.418	6.01
206.796	6.24
207.174	7.26
207.552	7.41
207.931	7.09
208.309	6.03
208.687	5.46
209.065	5.27
209.443	5.07
209.821	5.35
210.199	5.05
210.577	5.78
210.954	5.17
211.332	4.97
211.71	5.96
212.088	6.33
212.465	5.9
212.843	6.24
213.221	6.51
213.598	6.92
213.976	6.13
214.353	5.69
214.731	4.59
215.108	4.26
215.485	3.9
215.863	4.81
216.24	4.68
216.617	4.83
216.994	4.17
217.371	4.2
217.749	4.01
218.126	3.86
218.503	4.2
218.88	4.7
219.256	4.21
219.633	4.38
220.01	4.6
220.387	4.6
220.764	4.81
221.14	4.68
221.517	4.1
221.894	4.05
222.27	3.98
222.647	3.99
223.023	3.85
223.4	4.18
223.776	4.25
224.153	4.4
224.529	4.68
224.905	4.63
225.282	4.69
225.658	4.68
226.034	4.3
226.41	4.7
226.786	4.66
227.162	4.43
227.538	4.17
227.914	3.75
228.29	3.69
228.666	3.45
229.042	3.32
229.418	2.99
229.793	3.11
230.169	3.06
230.545	2.84
230.92	2.75
231.296	2.6
231.672	2.56
232.047	2.46
232.422	2.45
232.798	2.25
233.173	2.08
233.549	2.07
233.924	1.89
234.299	1.85
234.674	1.69
235.05	1.54
235.425	1.6
235.8	1.49
236.175	1.34
236.55	1.39
236.925	1.38
237.3	1.46
237.675	1.32
238.049	1.48
238.424	1.48
238.799	1.48
239.174	1.46
239.548	1.53
239.923	1.53
240.297	1.56
240.672	1.55
241.046	1.55
241.421	1.5
241.795	1.31
242.17	1.38
242.544	1.38
242.918	1.26
243.293	1.25
243.667	1.26
244.041	1.26
244.415	1.27
244.789	1.39
245.163	1.38
245.537	1.5
245.911	1.48
246.285	1.48
246.659	1.42
247.033	1.45
247.406	1.32
247.78	1.25
248.154	1.26
248.528	1.26
248.901	1.16
249.275	1.17
249.648	1.2
250.022	1.26
250.395	1.34
250.769	1.39
251.142	1.53
251.515	1.48
251.888	1.62
252.262	1.76
252.635	1.83
253.008	1.82
253.381	1.83
253.754	1.91
254.127	1.8
254.5	1.78
254.873	1.71
255.246	1.73
255.619	1.72
255.992	1.77
256.364	1.75
256.737	1.82
257.11	1.91
257.483	1.96
257.855	1.87
258.228	1.93
258.6	1.99
258.973	2.03
259.345	2.01
259.718	1.94
260.09	1.95
260.462	1.95
260.834	1.99
261.207	1.85
261.579	1.85
261.951	1.75
262.323	1.73
262.695	1.73
263.067	1.62
263.439	1.6
263.811	1.62
264.183	1.63
264.555	1.68
264.927	1.65
265.298	1.59
265.67	1.61
266.042	1.6
266.413	1.49
266.785	1.48
267.156	1.47
267.528	1.36
267.899	1.29
268.271	1.22
268.642	1.24
269.013	1.29
269.385	1.28
269.756	1.22
270.127	1.12
270.498	1.24
270.87	1.25
271.241	1.33
271.612	1.34
271.983	1.38
272.354	1.44
272.724	1.49
273.095	1.53
273.466	1.57
273.837	1.55
274.208	1.6
274.578	1.62
274.949	1.65
275.32	1.59
275.69	1.64
276.061	1.65
276.431	1.72
276.802	1.78
277.172	1.82
277.542	1.8
277.913	1.8
278.283	1.72
278.653	1.69
279.023	1.73
279.394	1.74
279.764	1.7
280.134	1.63
280.504	1.6
280.874	1.52
281.244	1.41
281.614	1.38
281.983	1.37
282.353	1.4
282.723	1.37
283.093	1.33
283.462	1.29
283.832	1.23
284.202	1.23
284.571	1.26
284.941	1.25
285.31	1.23
285.68	1.14
286.049	1.06
286.418	1.1
286.788	1.13
287.157	1.15
287.526	1.1
287.895	1.1
288.264	1.08
288.633	1.13
289.002	1.07
289.371	1.07
289.74	1.04
290.109	1
290.478	1.04
290.847	1.07
291.216	1.02
291.585	0.91
291.953	0.87
292.322	0.79
292.691	0.81
293.059	0.86
293.428	0.76
293.796	0.73
294.165	0.7
294.533	0.68
294.901	0.72
295.27	0.86
295.638	0.8
296.006	0.81
296.374	0.7
296.743	0.73
297.111	0.72
297.479	0.72
297.847	0.77
298.215	0.78
298.583	0.74
298.95	0.7
299.318	0.7
299.686	0.66
300.054	0.66
300.422	0.64
300.789	0.61
301.157	0.53
301.525	0.58
301.892	0.59
302.26	0.52
302.627	0.51
302.994	0.54
303.362	0.56
303.729	0.55
304.097	0.56
304.464	0.46
304.831	0.43
305.198	0.34
305.565	0.34
305.932	0.3
306.299	0.32
306.666	0.31
307.033	0.18
307.4	0.22
307.767	0.22
308.134	0.28
308.501	0.33
308.867	0.33
309.234	0.25
309.601	0.29
309.967	0.3
310.334	0.42
310.701	0.44
311.067	0.45
311.433	0.49
311.8	0.48
312.166	0.45
312.533	0.5
312.899	0.46
313.265	0.45
313.631	0.5
313.997	0.54
314.363	0.63
314.729	0.65
315.096	0.75
315.461	0.7
315.827	0.68
316.193	0.79
316.559	0.77
316.925	0.8
317.291	0.75
317.656	0.77
318.022	0.82
318.388	0.85
318.753	0.86
319.119	0.91
319.484	0.94
319.85	0.98
320.215	0.93
320.581	0.94
320.946	0.96
321.311	1.05
321.676	1
322.042	1
322.407	0.99
322.772	0.96
323.137	1.02
323.502	0.99
323.867	0.91
324.232	0.84
324.597	0.8
324.962	0.78
325.327	0.74
325.691	0.67
326.056	0.67
326.421	0.71
326.785	0.74
327.15	0.81
327.514	0.89
327.879	0.87
328.243	0.85
328.608	0.72
328.972	0.67
329.337	0.61
329.701	0.57
330.065	0.65
330.429	0.63
330.794	0.64
331.158	0.66
331.522	0.66
331.886	0.66
332.25	0.6
332.614	0.56
332.978	0.63
333.342	0.65
333.705	0.77
334.069	0.81
334.433	0.77
334.797	0.85
335.16	0.79
335.524	0.79
335.887	0.74
336.251	0.64
336.614	0.51
336.978	0.41
337.341	0.4
337.705	0.49
338.068	0.56
338.431	0.62
338.794	0.54
339.158	0.44
339.521	0.45
339.884	0.36
340.247	0.37
340.61	0.33
340.973	0.26
341.336	0.25
341.699	0.22
342.062	0.2
342.424	0.15
342.787	0.1
343.15	0.13
343.512	0.07
343.875	-0.02
344.238	-0
344.6	0.01
344.963	0
345.325	0.05
345.688	0.09
346.05	0.17
346.412	0.15
346.775	0.13
347.137	0.03
347.499	0.01
347.861	0.06
348.223	0.07
348.585	0.03
348.947	0.04
349.309	0.04
349.671	0.05
350.033	0.12
350.395	0.12
350.757	0.2
351.118	0.23
351.48	0.23
351.842	0.14
352.203	0.08
352.565	0.2
352.927	0.25
353.288	0.35
353.65	0.33
354.011	0.32
354.372	0.31
354.734	0.36
355.095	0.4
355.456	0.49
355.817	0.43
356.179	0.49
356.54	0.46
356.901	0.52
357.262	0.56
357.623	0.51
357.984	0.56
358.345	0.61
358.705	0.61
359.066	0.55
359.427	0.46
359.788	0.38
360.148	0.42
360.509	0.5
360.87	0.6
361.23	0.6
361.591	0.58
361.951	0.61
362.312	0.54
362.672	0.49
363.032	0.43
363.393	0.46
363.753	0.5
364.113	0.49
364.473	0.44
364.833	0.45
365.193	0.34
365.553	0.45
365.913	0.47
366.273	0.57
366.633	0.66
366.993	0.61
367.353	0.59
367.713	0.58
368.072	0.54
368.432	0.67
368.792	0.71
369.151	0.65
369.511	0.58
369.87	0.65
370.23	0.63
370.589	0.58
370.949	0.5
371.308	0.52
371.667	0.53
372.027	0.62
372.386	0.59
372.745	0.49
373.104	0.47
373.463	0.47
373.822	0.45
374.181	0.49
374.54	0.46
374.899	0.38
375.258	0.26
375.617	0.2
375.975	0.21
376.334	0.13
376.693	0.12
377.052	0.18
377.41	0.15
377.769	0.06
378.127	0.11
378.486	0.11
378.844	0.02
379.202	0.05
379.561	0.08
379.919	0.18
380.277	0.09
380.636	0.15
380.994	0.17
381.352	0.16
381.71	0.23
382.068	0.23
382.426	0.17
382.784	0.22
383.142	0.24
383.5	0.23
383.857	0.27
384.215	0.35
384.573	0.35
384.931	0.38
385.288	0.31
385.646	0.28
386.003	0.3
386.361	0.31
386.718	0.43
387.076	0.4
387.433	0.38
387.791	0.43
388.148	0.36
388.505	0.37
388.862	0.33
389.22	0.47
389.577	0.4
389.934	0.43
390.291	0.51
390.648	0.54
391.005	0.54
391.362	0.57
391.718	0.52
392.075	0.51
392.432	0.46
392.789	0.45
393.145	0.48
393.502	0.47
393.859	0.52
394.215	0.61
394.572	0.64
394.928	0.54
395.285	0.49
395.641	0.48
395.997	0.51
396.354	0.51
396.71	0.51
397.066	0.54
397.422	0.6
397.778	0.59
398.134	0.59
398.491	0.62
398.846	0.53
399.202	0.41
399.558	0.34
399.914	0.33
400.27	0.4
400.626	0.45
400.981	0.46
401.337	0.5
401.693	0.58
402.048	0.5
402.404	0.5
402.759	0.38
403.115	0.36
403.47	0.41
403.826	0.47
404.181	0.41
404.536	0.39
404.892	0.39
405.247	0.37
405.602	0.38
405.957	0.35
406.312	0.21
406.667	0.18
407.022	0.1
407.377	0.12
407.732	0.18
408.087	0.25
408.442	0.31
408.796	0.23
409.151	0.19
409.506	0.15
409.86	0.16
410.215	0.09
410.57	-0.03
410.924	-0.1
411.279	-0.14
411.633	-0.04
411.987	-0.08
412.342	-0.11
412.696	-0.14
413.05	-0.04
413.404	-0.08
413.758	0.02
414.113	0.08
414.467	0.01
414.821	0.06
415.175	0.14
415.529	0.17
415.882	0.03
416.236	-0.02
416.59	-0.02
416.944	-0
417.298	-0.06
417.651	-0.01
418.005	-0.01
418.358	0.11
418.712	0.22
419.065	0.21
419.419	0.3
419.772	0.36
420.126	0.46
420.479	0.56
420.832	0.7
421.185	0.8
421.539	0.83
421.892	0.86
422.245	0.93
422.598	0.85
422.951	0.85
423.304	0.95
423.657	0.99
424.01	0.95
424.363	1.03
424.715	1.25
425.068	1.31
425.421	1.23
425.773	1.2
426.126	1.31
426.479	1.32
426.831	1.31
427.184	1.31
427.536	1.22
427.889	1.32
428.241	1.33
428.593	1.4
428.945	1.41
429.298	1.35
429.65	1.3
430.002	1.34
430.354	1.32
430.706	1.28
431.058	1.26
431.41	1.26
431.762	1.34
432.114	1.29
432.466	1.28
432.817	1.37
433.169	1.25
433.521	1.27
433.872	1.3
434.224	1.25
434.576	1.3
434.927	1.21
435.279	1.22
435.63	1.17
435.981	1.04
436.333	1.04
436.684	1.01
437.035	0.92
437.387	0.91
437.738	0.87
438.089	0.9
438.44	0.9
438.791	0.84
439.142	0.94
439.493	1.05
439.844	1.05
440.195	1.13
440.545	1.11
440.896	1.21
441.247	1.22
441.598	1.27
441.948	1.3
442.299	1.24
442.649	1.14
443	1.22
443.35	1.17
443.701	1.19
444.051	1.26
444.401	1.36
444.752	1.31
445.102	1.28
445.452	1.26
445.802	1.21
446.152	1.19
446.502	1.25
446.852	1.3
447.202	1.25
447.552	1.33
447.902	1.4
448.252	1.32
448.602	2.74
448.952	2.8
449.301	2.71
449.651	2.67
450.001	2.7
450.35	2.66
450.7	2.7
451.049	2.62
451.399	2.8
451.748	2.87
452.097	2.94
452.447	3.01
452.796	2.97
453.145	2.94
453.494	3.12
453.843	3.2
454.193	3.34
454.542	3.51
454.891	3.56
455.239	3.52
455.588	3.41
455.937	3.51
456.286	3.53
456.635	3.5
456.984	3.48
457.332	1.9
457.681	1.8
458.03	1.86
458.378	1.85
458.727	1.95
459.075	2.01
459.423	2.14
459.772	2.26
460.12	2.37
460.468	2.43
460.817	2.47
461.165	2.46
461.513	2.42
461.861	2.53
462.209	2.66
462.557	2.63
462.905	2.55
463.253	2.59
463.601	2.68
463.949	2.71
464.297	2.85
464.644	2.86
464.992	2.78
465.34	2.77
465.687	2.87
466.035	2.92
466.383	2.86
466.73	2.9
467.078	2.9
467.425	2.78
467.772	2.82
468.12	2.76
468.467	2.78
468.814	2.68
469.161	2.56
469.508	2.4
469.856	2.29
470.203	2.33
470.55	2.26
470.897	2.24
471.243	2.26
471.59	2.22
471.937	2.22
472.284	2.15
472.631	2.1
472.977	2
473.324	1.99
473.671	1.96
474.017	1.93
474.364	1.91
474.71	1.9
475.057	2
475.403	2.03
475.749	2.11
476.096	2.13
476.442	2.07
476.788	2.03
477.134	1.99
477.48	1.94
477.826	1.98
478.172	2.1
478.518	2.15
478.864	2.19
479.21	2.26
479.556	2.17
479.902	2.16
480.248	2.14
480.593	2.04
480.939	2.02
481.285	2.09
481.63	2.1
481.976	2.16
482.321	2.25
482.667	2.38
483.012	2.45
483.357	2.45
483.703	2.42
484.048	2.47
484.393	2.58
484.738	2.62
485.084	2.72
485.429	2.88
485.774	3.17
486.119	3.33
486.464	3.53
486.808	3.74
487.153	3.97
487.498	4.17
487.843	4.31
488.188	4.63
488.532	4.96
488.877	5.32
489.222	5.74
489.566	6.2
489.911	6.65
490.255	7.13
490.6	7.65
490.944	8.11
491.288	8.45
491.633	8.87
491.977	9.41
492.321	10.05
492.665	10.68
493.009	11.23
493.353	11.86
493.697	12.43
494.041	13.15
494.385	13.75
494.729	14.5
495.073	15.22
495.417	15.89
495.76	16.61
496.104	17.44
496.448	18.25
496.791	19.09
497.135	19.87
497.479	20.73
497.822	21.7
498.165	22.57
498.509	23.43
498.852	24.3
499.196	25.14
499.539	26.04
499.882	27.02
500.225	27.93
500.568	28.74
500.911	29.56
501.254	30.28
501.597	31.11
501.94	31.96
502.283	32.81
502.626	33.52
502.969	34.27
503.312	34.95
503.654	35.87
503.997	36.61
504.34	37.33
504.682	38.12
505.025	38.94
505.367	39.51
505.71	40.16
506.052	40.86
506.395	41.33
506.737	41.9
507.079	42.52
507.421	43.21
507.764	43.74
508.106	44.34
508.448	44.84
508.79	45.4
509.132	45.94
509.474	46.45
509.816	47.08
510.158	47.56
510.499	48.08
510.841	48.59
511.183	48.91
511.525	49.41
511.866	49.81
512.208	50.13
512.549	50.63
512.891	51.2
513.232	51.45
513.574	51.83
513.915	52.28
514.256	52.82
514.598	53.28
514.939	53.74
515.28	54.22
515.621	54.66
515.962	54.82
516.303	55.25
516.644	55.6
516.985	55.96
517.326	56.16
517.667	56.6
518.008	56.82
518.349	57.09
518.69	57.5
519.03	57.57
519.371	57.72
519.712	58.18
520.052	58.33
520.393	58.7
520.733	58.97
521.074	59.2
521.414	59.38
521.754	59.73
522.095	59.95
522.435	60.31
522.775	60.45
523.115	60.59
523.455	60.83
523.795	60.87
524.135	60.89
524.475	61.14
524.815	61.46
525.155	61.6
525.495	61.77
525.835	61.92
526.175	61.99
526.514	62.28
526.854	62.41
527.194	62.42
527.533	62.79
527.873	63.13
528.212	63.34
528.552	63.71
528.891	63.9
529.23	64.05
529.57	64.2
529.909	64.23
530.248	64.24
530.587	64.49
530.927	64.5
531.266	64.6
531.605	64.63
531.944	64.71
532.283	64.94
532.621	65.2
532.96	65.49
533.299	65.49
533.638	65.67
533.977	65.83
534.315	66.25
534.654	66.53
534.992	66.6
535.331	66.56
535.67	66.8
536.008	67.02
536.346	66.92
536.685	66.89
537.023	66.59
537.361	66.59
537.7	66.66
538.038	66.57
538.376	66.76
538.714	67.03
539.052	66.93
539.39	67.09
539.728	67.18
540.066	67.51
540.404	67.69
540.741	67.65
541.079	67.67
541.417	67.77
541.755	67.94
542.092	67.83
542.43	67.84
542.767	67.77
543.105	67.74
543.442	67.93
543.78	68.17
544.117	68.17
544.454	67.92
544.792	68.04
545.129	68.09
545.466	68.6
545.803	68.71
546.14	68.57
546.477	68.7
546.814	68.83
547.151	68.8
547.488	68.79
547.825	68.83
548.162	68.95
548.499	68.96
548.835	68.64
549.172	68.85
549.509	68.94
549.845	68.82
550.182	68.82
550.518	68.86
550.855	68.95
551.191	69.03
551.528	68.77
551.864	68.67
552.2	68.64
552.537	68.64
552.873	68.87
553.209	69.12
553.545	69.04
553.881	68.86
554.217	68.8
554.553	69.06
554.889	69.18
555.225	69.04
555.561	68.94
555.896	69.02
556.232	68.94
556.568	68.93
556.903	68.84
557.239	68.94
557.575	68.91
557.91	69.09
558.245	69.24
558.581	69.35
558.916	69.49
559.252	69.54
559.587	69.41
559.922	69.84
560.257	70.03
560.592	70.1
560.928	70.04
561.263	70.07
561.598	70.12
561.933	70.24
562.267	70.36
562.602	70.47
562.937	70.47
563.272	70.77
563.607	71.05
563.941	71.14
564.276	71.21
564.611	71.69
564.945	71.78
565.28	71.69
565.614	71.85
565.949	71.83
566.283	71.75
566.617	71.75
566.951	71.6
567.286	71.73
567.62	71.72
567.954	71.96
568.288	72.04
568.622	71.91
568.956	71.94
569.29	71.93
569.624	72.01
569.958	71.99
570.292	71.96
570.626	72.06
570.959	72.19
571.293	72.45
571.627	72.24
571.96	72.12
572.294	72.15
572.627	72.14
572.961	71.86
573.294	71.92
573.627	71.97
573.961	72.02
574.294	72.17
574.627	72.31
574.961	72.52
575.294	72.65
575.627	72.63
575.96	72.69
576.293	72.68
576.626	72.66
576.959	72.64
577.292	72.68
577.624	72.78
577.957	72.85
578.29	72.92
578.623	73.04
578.955	73
579.288	73.04
579.62	73.01
579.953	73.07
580.285	73.1
580.618	73.16
580.95	73.36
581.282	73.55
581.615	73.58
581.947	73.76
582.279	73.69
582.611	73.64
582.943	73.58
583.275	73.36
583.607	73.26
583.939	73.19
584.271	73.2
584.603	73.11
584.935	73.09
585.267	73.26
585.598	73.34
585.93	73.55
586.262	73.58
586.593	73.57
586.925	73.56
587.256	73.49
587.588	73.33
587.919	73.15
588.25	73.25
588.582	73.3
588.913	73.4
589.244	73.22
589.575	73.24
589.907	73.23
590.238	73.15
590.569	73.32
590.9	73.38
591.231	73.34
591.562	73.56
591.892	73.56
592.223	73.76
592.554	73.75
592.885	73.75
593.215	73.58
593.546	73.56
593.877	73.43
594.207	73.2
594.538	73.14
594.868	72.99
595.198	73.13
595.529	73.2
595.859	73.4
596.189	73.46
596.52	73.47
596.85	73.57
597.18	73.53
597.51	73.58
597.84	73.65
598.17	73.59
598.5	73.65
598.83	73.72
599.16	73.73
599.489	73.72
599.819	73.71
600.149	73.76
600.479	73.64
600.808	73.72
601.138	73.77
601.467	73.91
601.797	73.84
602.126	73.85
602.456	73.9
602.785	74
603.114	74.19
603.443	74.05
603.773	74.08
604.102	73.96
604.431	73.84
604.76	73.74
605.089	73.65
605.418	73.64
605.747	73.49
606.076	73.13
606.405	73.25
606.733	73.3
607.062	73.18
607.391	73.2
607.72	73.14
608.048	72.95
608.377	72.9
608.705	72.91
609.034	72.63
609.362	72.43
609.69	72.51
610.019	72.53
610.347	72.52
610.675	72.5
611.004	72.3
611.332	72.4
611.66	72.5
611.988	72.27
612.316	72.23
612.644	72.23
612.972	72.44
613.3	72.49
613.627	72.27
613.955	72.6
614.283	72.66
614.611	72.59
614.938	72.61
615.266	72.58
615.593	72.3
615.921	72.29
616.248	72.5
616.576	72.56
616.903	72.44
617.23	72.23
617.558	72.47
617.885	72.28
618.212	72.45
618.539	72.29
618.866	72.52
619.193	72.28
619.52	72.1
619.847	72.06
620.174	72.3
620.501	72.43
620.828	72.39
621.155	72.22
621.481	72
621.808	72.38
622.135	71.81
622.461	72.19
622.788	72.19
623.114	72
623.441	71.71
623.767	71.85
624.093	71.98
624.42	71.85
624.746	72.26
625.072	72.66
625.398	73.56
625.725	73.91
626.051	73.68
626.377	73.74
626.703	74.05
627.029	73.71
627.354	74.2
627.68	74.43
628.006	74.46
628.332	73.78
628.658	73.92
628.983	74.42
629.309	74.71
629.634	75.03
629.96	74.9
630.285	75.9
630.611	75.71
630.936	75.93
631.262	75.92
631.587	76.94
631.912	77.13
632.237	77.4
632.562	77.86
632.887	77.49
633.213	77.23
633.538	77.2
633.863	76.88
634.187	77.76
634.512	77.42
634.837	77.6
635.162	77.97
635.487	77.85
635.811	76.96
636.136	76.76
636.461	77.46
636.785	77.33
637.11	77.5
637.434	77.56
637.758	77.35
638.083	77.53
638.407	77.23
638.731	77.47
639.056	77.45
639.38	77.75
639.704	77.76
640.028	77.87
640.352	77.1
640.676	76.54
641	76.9
641.324	76.95
641.648	76.68
641.972	77.02
642.295	76.56
642.619	77.06
642.943	76.85
643.266	76.21
643.59	76.18
643.913	77.14
644.237	77.41
644.56	78.14
644.884	78.05
645.207	78.14
645.53	77.71
645.854	78.32
646.177	77.73
646.5	77.34
646.823	77.21
647.146	77.24
647.469	77.35
647.792	77.31
648.115	77.44
648.438	78.39
648.761	78.6
649.084	77.61
649.406	76.4
649.729	74.99
650.052	74.69
650.374	74.62
650.697	74.61
651.019	74.58
651.342	74.68
651.664	74.75
651.987	74.48
652.309	74.55
652.631	74.52
652.953	74.29
653.276	73.99
653.598	74.07
653.92	73.86
654.242	73.74
654.564	73.93
654.886	74.03
655.208	73.79
655.53	73.66
655.851	73.62
656.173	73.39
656.495	73.22
656.816	73.02
657.138	72.65
657.46	72.94
657.781	74.69
658.103	75
658.424	75.44
658.746	75.57
659.067	75.76
659.388	76.39
659.709	75.67
660.031	76.45
660.352	75.9
660.673	75.04
660.994	75.22
661.315	76.45
661.636	76.38
661.957	76.78
662.278	77.67
662.599	77.3
662.919	76.78
663.24	76.63
663.561	77.05
663.881	76.44
664.202	76.34
664.523	75.91
664.843	74.98
665.164	75.89
