Data from T1_Reflection__36__17-23-16-676.txt Node

Date: Wed Jun 02 17:23:16 CEST 2021
User: mabdelazizm
Spectrometer: FLMS18565
Trigger mode: 0
Integration Time (sec): 2.000000E0
Scans to average: 1
Electric dark correction enabled: true
Nonlinearity correction enabled: false
Boxcar width: 12
XAxis mode: Wavelengths
Number of Pixels in Spectrum: 2048
>>>>>Begin Spectral Data<<<<<
179.071	73.93
179.452	117.36
179.833	-151.52
180.214	204.76
180.595	-2818.18
180.977	314.07
181.358	666.34
181.739	504
182.12	301.72
182.501	315.61
182.882	146.52
183.262	137.42
183.643	651.71
184.024	-31.06
184.405	16.08
184.786	35.78
185.166	31.72
185.547	20.65
185.927	6
186.308	12.09
186.689	13.05
187.069	15.61
187.449	13.79
187.83	14.96
188.21	9.33
188.59	10.26
188.971	9
189.351	4.95
189.731	8.28
190.111	10.19
190.491	11.64
190.871	9.15
191.251	9.24
191.631	7.33
192.011	5.49
192.391	6.73
192.771	7.02
193.151	7.42
193.531	5.71
193.91	4.55
194.29	2.9
194.67	2.59
195.049	4.1
195.429	4.75
195.808	3.54
196.188	3.71
196.567	3.87
196.946	3.57
197.326	2.09
197.705	0.59
198.084	0.58
198.464	0.23
198.843	2.58
199.222	3.65
199.601	3.8
199.98	3.47
200.359	3.65
200.738	4.2
201.117	4.44
201.496	4.98
201.875	5.09
202.254	3.32
202.632	3.57
203.011	3.98
203.39	3.45
203.768	3.82
204.147	4.94
204.525	4.95
204.904	4.77
205.282	4.88
205.661	5.15
206.039	5.77
206.418	4.59
206.796	4.86
207.174	6.21
207.552	6.7
207.931	5.99
208.309	5.4
208.687	5.43
209.065	5.21
209.443	5.79
209.821	6.36
210.199	5.79
210.577	5.59
210.954	5.27
211.332	4.55
211.71	5.06
212.088	5.02
212.465	4.51
212.843	5.05
213.221	5.15
213.598	4.21
213.976	4.09
214.353	3.54
214.731	2.93
215.108	2.71
215.485	2.32
215.863	3.21
216.24	3.31
216.617	3.38
216.994	3.01
217.371	3.83
217.749	3.42
218.126	2.43
218.503	2.6
218.88	2.26
219.256	2
219.633	2.28
220.01	2.92
220.387	3.55
220.764	4.07
221.14	4.41
221.517	3.91
221.894	3.96
222.27	3.55
222.647	3.35
223.023	3.48
223.4	3.41
223.776	3.76
224.153	3.94
224.529	3.87
224.905	3.85
225.282	3.77
225.658	3.73
226.034	3.33
226.41	3.32
226.786	3.22
227.162	3.24
227.538	3.43
227.914	3.13
228.29	3.16
228.666	3.08
229.042	2.94
229.418	2.58
229.793	2.83
230.169	2.73
230.545	2.29
230.92	2.29
231.296	2.33
231.672	2.41
232.047	2.31
232.422	2.17
232.798	2.02
233.173	1.81
233.549	1.99
233.924	1.78
234.299	1.71
234.674	1.7
235.05	1.63
235.425	1.71
235.8	1.67
236.175	1.62
236.55	1.55
236.925	1.42
237.3	1.51
237.675	1.45
238.049	1.61
238.424	1.68
238.799	1.7
239.174	1.5
239.548	1.53
239.923	1.55
240.297	1.62
240.672	1.56
241.046	1.55
241.421	1.6
241.795	1.55
242.17	1.57
242.544	1.56
242.918	1.41
243.293	1.46
243.667	1.47
244.041	1.44
244.415	1.42
244.789	1.51
245.163	1.46
245.537	1.5
245.911	1.49
246.285	1.56
246.659	1.57
247.033	1.58
247.406	1.46
247.78	1.45
248.154	1.5
248.528	1.49
248.901	1.37
249.275	1.43
249.648	1.44
250.022	1.43
250.395	1.53
250.769	1.52
251.142	1.58
251.515	1.61
251.888	1.7
252.262	1.75
252.635	1.77
253.008	1.74
253.381	1.74
253.754	1.8
254.127	1.72
254.5	1.76
254.873	1.68
255.246	1.76
255.619	1.74
255.992	1.75
256.364	1.78
256.737	1.85
257.11	1.86
257.483	1.87
257.855	1.88
258.228	1.99
258.6	2.05
258.973	2.04
259.345	2.07
259.718	1.98
260.09	1.99
260.462	2.04
260.834	2
261.207	1.96
261.579	1.94
261.951	1.88
262.323	1.92
262.695	1.91
263.067	1.81
263.439	1.76
263.811	1.73
264.183	1.79
264.555	1.7
264.927	1.69
265.298	1.61
265.67	1.59
266.042	1.51
266.413	1.4
266.785	1.35
267.156	1.36
267.528	1.33
267.899	1.28
268.271	1.26
268.642	1.3
269.013	1.34
269.385	1.25
269.756	1.22
270.127	1.21
270.498	1.27
270.87	1.31
271.241	1.35
271.612	1.31
271.983	1.3
272.354	1.37
272.724	1.44
273.095	1.53
273.466	1.58
273.837	1.58
274.208	1.59
274.578	1.59
274.949	1.6
275.32	1.55
275.69	1.58
276.061	1.66
276.431	1.64
276.802	1.62
277.172	1.6
277.542	1.53
277.913	1.47
278.283	1.39
278.653	1.42
279.023	1.43
279.394	1.43
279.764	1.39
280.134	1.3
280.504	1.37
280.874	1.29
281.244	1.22
281.614	1.21
281.983	1.2
282.353	1.21
282.723	1.11
283.093	1.17
283.462	1.13
283.832	1.16
284.202	1.15
284.571	1.21
284.941	1.2
285.31	1.15
285.68	1.13
286.049	1.14
286.418	1.19
286.788	1.32
287.157	1.33
287.526	1.4
287.895	1.38
288.264	1.38
288.633	1.39
289.002	1.35
289.371	1.37
289.74	1.24
290.109	1.25
290.478	1.28
290.847	1.28
291.216	1.21
291.585	1.05
291.953	1.04
292.322	0.96
292.691	0.97
293.059	0.92
293.428	0.9
293.796	0.84
294.165	0.86
294.533	0.88
294.901	0.88
295.27	0.87
295.638	0.8
296.006	0.66
296.374	0.69
296.743	0.63
297.111	0.6
297.479	0.62
297.847	0.63
298.215	0.66
298.583	0.65
298.95	0.63
299.318	0.71
299.686	0.66
300.054	0.73
300.422	0.73
300.789	0.82
301.157	0.79
301.525	0.8
301.892	0.75
302.26	0.77
302.627	0.75
302.994	0.78
303.362	0.75
303.729	0.75
304.097	0.83
304.464	0.82
304.831	0.81
305.198	0.78
305.565	0.73
305.932	0.74
306.299	0.76
306.666	0.72
307.033	0.68
307.4	0.69
307.767	0.66
308.134	0.71
308.501	0.69
308.867	0.77
309.234	0.69
309.601	0.73
309.967	0.62
310.334	0.69
310.701	0.72
311.067	0.8
311.433	0.77
311.8	0.78
312.166	0.78
312.533	0.79
312.899	0.72
313.265	0.63
313.631	0.66
313.997	0.65
314.363	0.67
314.729	0.6
315.096	0.56
315.461	0.51
315.827	0.48
316.193	0.53
316.559	0.48
316.925	0.55
317.291	0.57
317.656	0.52
318.022	0.47
318.388	0.54
318.753	0.55
319.119	0.63
319.484	0.68
319.85	0.68
320.215	0.71
320.581	0.76
320.946	0.7
321.311	0.71
321.676	0.69
322.042	0.72
322.407	0.72
322.772	0.74
323.137	0.73
323.502	0.78
323.867	0.78
324.232	0.81
324.597	0.84
324.962	0.87
325.327	0.84
325.691	0.82
326.056	0.79
326.421	0.81
326.785	0.88
327.15	1.02
327.514	0.94
327.879	0.97
328.243	0.91
328.608	0.79
328.972	0.78
329.337	0.63
329.701	0.58
330.065	0.7
330.429	0.63
330.794	0.71
331.158	0.66
331.522	0.63
331.886	0.57
332.25	0.63
332.614	0.57
332.978	0.65
333.342	0.63
333.705	0.7
334.069	0.68
334.433	0.67
334.797	0.71
335.16	0.74
335.524	0.69
335.887	0.61
336.251	0.51
336.614	0.52
336.978	0.46
337.341	0.48
337.705	0.65
338.068	0.74
338.431	0.76
338.794	0.74
339.158	0.65
339.521	0.68
339.884	0.58
340.247	0.67
340.61	0.76
340.973	0.74
341.336	0.69
341.699	0.65
342.062	0.58
342.424	0.59
342.787	0.51
343.15	0.51
343.512	0.42
343.875	0.41
344.238	0.4
344.6	0.43
344.963	0.44
345.325	0.38
345.688	0.34
346.05	0.34
346.412	0.36
346.775	0.34
347.137	0.29
347.499	0.4
347.861	0.41
348.223	0.44
348.585	0.53
348.947	0.49
349.309	0.37
349.671	0.35
350.033	0.37
350.395	0.41
350.757	0.48
351.118	0.47
351.48	0.44
351.842	0.42
352.203	0.45
352.565	0.52
352.927	0.49
353.288	0.52
353.65	0.5
354.011	0.52
354.372	0.56
354.734	0.6
355.095	0.58
355.456	0.6
355.817	0.54
356.179	0.54
356.54	0.43
356.901	0.46
357.262	0.44
357.623	0.36
357.984	0.5
358.345	0.6
358.705	0.61
359.066	0.6
359.427	0.58
359.788	0.55
360.148	0.6
360.509	0.7
360.87	0.74
361.23	0.79
361.591	0.85
361.951	0.87
362.312	0.76
362.672	0.75
363.032	0.68
363.393	0.73
363.753	0.78
364.113	0.83
364.473	0.82
364.833	0.8
365.193	0.64
365.553	0.71
365.913	0.72
366.273	0.81
366.633	0.86
366.993	0.7
367.353	0.68
367.713	0.64
368.072	0.61
368.432	0.66
368.792	0.73
369.151	0.8
369.511	0.77
369.87	0.87
370.23	0.81
370.589	0.77
370.949	0.77
371.308	0.87
371.667	0.85
372.027	0.92
372.386	0.87
372.745	0.79
373.104	0.78
373.463	0.77
373.822	0.67
374.181	0.77
374.54	0.71
374.899	0.65
375.258	0.55
375.617	0.49
375.975	0.6
376.334	0.51
376.693	0.49
377.052	0.54
377.41	0.45
377.769	0.39
378.127	0.26
378.486	0.31
378.844	0.26
379.202	0.24
379.561	0.2
379.919	0.28
380.277	0.14
380.636	0.25
380.994	0.24
381.352	0.25
381.71	0.39
382.068	0.44
382.426	0.46
382.784	0.64
383.142	0.54
383.5	0.64
383.857	0.71
384.215	0.76
384.573	0.89
384.931	0.88
385.288	0.89
385.646	0.86
386.003	0.83
386.361	0.91
386.718	1.02
387.076	1.13
387.433	1.01
387.791	0.99
388.148	1.04
388.505	0.99
388.862	0.9
389.22	1.07
389.577	1
389.934	1.08
390.291	1.19
390.648	1.1
391.005	1.04
391.362	1.04
391.718	0.96
392.075	1.03
392.432	0.98
392.789	0.99
393.145	1.08
393.502	0.99
393.859	1
394.215	0.95
394.572	0.95
394.928	0.9
395.285	0.92
395.641	0.84
395.997	0.76
396.354	0.79
396.71	0.87
397.066	0.88
397.422	0.95
397.778	1.03
398.134	0.93
398.491	0.99
398.846	0.95
399.202	0.86
399.558	0.75
399.914	0.77
400.27	0.79
400.626	0.82
400.981	0.82
401.337	0.88
401.693	0.96
402.048	0.93
402.404	0.97
402.759	0.96
403.115	1.09
403.47	1.18
403.826	1.32
404.181	1.19
404.536	1.18
404.892	1.23
405.247	1.2
405.602	1.14
405.957	1.09
406.312	1.15
406.667	1.05
407.022	1.12
407.377	1.02
407.732	1.05
408.087	1.06
408.442	1.2
408.796	1.12
409.151	1.1
409.506	1.11
409.86	1.12
410.215	0.96
410.57	0.9
410.924	0.8
411.279	0.74
411.633	0.84
411.987	0.8
412.342	0.73
412.696	0.63
413.05	0.7
413.404	0.64
413.758	0.74
414.113	0.83
414.467	0.83
414.821	0.9
415.175	0.91
415.529	0.96
415.882	0.86
416.236	0.85
416.59	0.84
416.944	0.85
417.298	0.86
417.651	0.88
418.005	0.87
418.358	0.97
418.712	1.05
419.065	1.14
419.419	1.15
419.772	1.21
420.126	1.22
420.479	1.18
420.832	1.34
421.185	1.42
421.539	1.45
421.892	1.49
422.245	1.57
422.598	1.47
422.951	1.54
423.304	1.57
423.657	1.58
424.01	1.54
424.363	1.59
424.715	1.66
425.068	1.7
425.421	1.71
425.773	1.73
426.126	1.79
426.479	1.88
426.831	1.96
427.184	1.79
427.536	1.71
427.889	1.71
428.241	1.74
428.593	1.74
428.945	1.82
429.298	1.77
429.65	1.64
430.002	1.66
430.354	1.73
430.706	1.61
431.058	1.65
431.41	1.71
431.762	1.65
432.114	1.53
432.466	1.48
432.817	1.47
433.169	1.42
433.521	1.52
433.872	1.63
434.224	1.61
434.576	1.63
434.927	1.47
435.279	1.5
435.63	1.32
435.981	1.31
436.333	1.3
436.684	1.34
437.035	1.28
437.387	1.27
437.738	1.24
438.089	1.3
438.44	1.29
438.791	1.26
439.142	1.27
439.493	1.31
439.844	1.28
440.195	1.26
440.545	1.24
440.896	1.34
441.247	1.37
441.598	1.42
441.948	1.42
442.299	1.3
442.649	1.14
443	1.13
443.35	1.13
443.701	1.15
444.051	1.08
444.401	1.25
444.752	1.21
445.102	1.31
445.452	1.35
445.802	1.29
446.152	1.32
446.502	1.38
446.852	1.37
447.202	1.41
447.552	1.49
447.902	1.51
448.252	1.59
448.602	1.68
448.952	1.64
449.301	1.66
449.651	1.57
450.001	1.52
450.35	1.57
450.7	1.49
451.049	1.42
451.399	1.55
451.748	1.41
452.097	1.42
452.447	1.48
452.796	1.43
453.145	1.44
453.494	1.57
453.843	1.57
454.193	1.51
454.542	1.59
454.891	1.56
455.239	1.39
455.588	1.37
455.937	1.37
456.286	1.41
456.635	1.37
456.984	1.38
457.332	1.25
457.681	1.34
458.03	1.37
458.378	1.38
458.727	1.52
459.075	1.46
459.423	1.64
459.772	1.7
460.12	1.72
460.468	1.88
460.817	1.82
461.165	1.83
461.513	1.77
461.861	1.85
462.209	1.93
462.557	1.89
462.905	1.94
463.253	2.01
463.601	2.05
463.949	2.17
464.297	2.22
464.644	2.2
464.992	2.09
465.34	2.04
465.687	2.08
466.035	2.19
466.383	2.13
466.73	2.08
467.078	2.02
467.425	1.96
467.772	1.97
468.12	1.96
468.467	1.97
468.814	2.01
469.161	1.99
469.508	1.92
469.856	1.81
470.203	1.95
470.55	1.75
470.897	1.84
471.243	1.78
471.59	1.7
471.937	1.7
472.284	1.72
472.631	1.65
472.977	1.53
473.324	1.58
473.671	1.62
474.017	1.6
474.364	1.58
474.71	1.48
475.057	1.52
475.403	1.55
475.749	1.67
476.096	1.62
476.442	1.73
476.788	1.72
477.134	1.74
477.48	1.62
477.826	1.62
478.172	1.78
478.518	1.88
478.864	1.9
479.21	1.94
479.556	1.81
479.902	1.81
480.248	1.83
480.593	1.72
480.939	1.67
481.285	1.66
481.63	1.71
481.976	1.72
482.321	1.67
482.667	1.77
483.012	1.8
483.357	1.79
483.703	1.8
484.048	1.82
484.393	1.89
484.738	1.95
485.084	1.93
485.429	1.98
485.774	2.12
486.119	2.22
486.464	2.32
486.808	2.31
487.153	2.31
487.498	2.4
487.843	2.45
488.188	2.61
488.532	2.7
488.877	2.86
489.222	3.06
489.566	3.3
489.911	3.55
490.255	3.69
490.6	3.84
490.944	4.04
491.288	4.14
491.633	4.28
491.977	4.57
492.321	4.84
492.665	5.16
493.009	5.31
493.353	5.57
493.697	5.83
494.041	6.13
494.385	6.4
494.729	6.77
495.073	7.16
495.417	7.58
495.76	7.98
496.104	8.33
496.448	8.82
496.791	9.24
497.135	9.69
497.479	10.12
497.822	10.63
498.165	11.01
498.509	11.57
498.852	12.14
499.196	12.67
499.539	13.29
499.882	13.89
500.225	14.51
500.568	15.09
500.911	15.66
501.254	16.11
501.597	16.77
501.94	17.38
502.283	17.94
502.626	18.44
502.969	19
503.312	19.54
503.654	20.15
503.997	20.79
504.34	21.47
504.682	22.12
505.025	22.69
505.367	23.21
505.71	23.87
506.052	24.58
506.395	25.1
506.737	25.81
507.079	26.5
507.421	27.15
507.764	27.87
508.106	28.46
508.448	29.13
508.79	29.75
509.132	30.31
509.474	30.87
509.816	31.5
510.158	32.07
510.499	32.65
510.841	33.26
511.183	33.87
511.525	34.52
511.866	35.24
512.208	35.75
512.549	36.32
512.891	36.77
513.232	37.35
513.574	37.89
513.915	38.53
514.256	39.11
514.598	39.65
514.939	40.27
515.28	40.84
515.621	41.16
515.962	41.55
516.303	42
516.644	42.42
516.985	42.85
517.326	43.27
517.667	43.74
518.008	44.05
518.349	44.47
518.69	44.86
519.03	45.12
519.371	45.49
519.712	45.92
520.052	46.08
520.393	46.2
520.733	46.69
521.074	46.9
521.414	47.42
521.754	47.74
522.095	48.08
522.435	48.4
522.775	48.6
523.115	48.87
523.455	49.14
523.795	49.39
524.135	49.59
524.475	49.97
524.815	50.21
525.155	50.52
525.495	50.67
525.835	50.81
526.175	50.96
526.514	51.25
526.854	51.51
527.194	51.79
527.533	52.14
527.873	52.47
528.212	52.77
528.552	53.22
528.891	53.46
529.23	53.48
529.57	53.71
529.909	53.79
530.248	53.86
530.587	54.01
530.927	54.19
531.266	54.38
531.605	54.48
531.944	54.81
532.283	54.92
532.621	55.14
532.96	55.3
533.299	55.42
533.638	55.76
533.977	56.05
534.315	56.36
534.654	56.5
534.992	56.83
535.331	56.83
535.67	56.94
536.008	57.24
536.346	57.21
536.685	57.16
537.023	57.09
537.361	57.3
537.7	57.51
538.038	57.77
538.376	57.81
538.714	58.08
539.052	58.29
539.39	58.51
539.728	58.75
540.066	59.03
540.404	59.01
540.741	58.98
541.079	59.17
541.417	59.18
541.755	59.31
542.092	59.21
542.43	59.1
542.767	59.15
543.105	59.38
543.442	59.2
543.78	59.5
544.117	59.6
544.454	59.34
544.792	59.57
545.129	59.6
545.466	59.84
545.803	60.01
546.14	59.99
546.477	59.87
546.814	60.04
547.151	59.95
547.488	60.01
547.825	59.87
548.162	59.8
548.499	59.8
548.835	59.77
549.172	59.91
549.509	59.79
549.845	59.94
550.182	59.9
550.518	59.96
550.855	60.02
551.191	59.92
551.528	59.75
551.864	60.01
552.2	59.88
552.537	59.93
552.873	60.21
553.209	60.28
553.545	60.32
553.881	60.28
554.217	60.13
554.553	60.38
554.889	60.59
555.225	60.49
555.561	60.67
555.896	60.73
556.232	60.73
556.568	60.71
556.903	60.63
557.239	60.61
557.575	60.72
557.91	61.05
558.245	61.07
558.581	61.29
558.916	61.19
559.252	61.31
559.587	61.4
559.922	61.76
560.257	61.79
560.592	61.91
560.928	61.81
561.263	61.82
561.598	61.87
561.933	61.92
562.267	61.92
562.602	62.05
562.937	61.93
563.272	62.12
563.607	62.4
563.941	62.4
564.276	62.31
564.611	62.53
564.945	62.59
565.28	62.67
565.614	62.76
565.949	62.52
566.283	62.57
566.617	62.63
566.951	62.54
567.286	62.77
567.62	62.91
567.954	63.21
568.288	63.11
568.622	63.02
568.956	63.09
569.29	63.15
569.624	63.14
569.958	63.2
570.292	63.33
570.626	63.4
570.959	63.54
571.293	63.79
571.627	63.73
571.96	63.77
572.294	63.66
572.627	63.64
572.961	63.56
573.294	63.63
573.627	63.71
573.961	63.75
574.294	64.06
574.627	64.01
574.961	64.18
575.294	64.25
575.627	64.17
575.96	64.06
576.293	64.01
576.626	64.02
576.959	64.11
577.292	64.2
577.624	64.26
577.957	64.32
578.29	64.41
578.623	64.41
578.955	64.41
579.288	64.31
579.62	64.13
579.953	64.24
580.285	64.16
580.618	64.36
580.95	64.52
581.282	64.57
581.615	64.7
581.947	64.69
582.279	64.69
582.611	64.64
582.943	64.65
583.275	64.51
583.607	64.49
583.939	64.56
584.271	64.67
584.603	64.74
584.935	64.68
585.267	64.59
585.598	64.44
585.93	64.68
586.262	64.69
586.593	64.53
586.925	64.43
587.256	64.56
587.588	64.55
587.919	64.53
588.25	64.3
588.582	64.18
588.913	64.21
589.244	64.19
589.575	64.24
589.907	64.23
590.238	64.25
590.569	64.37
590.9	64.4
591.231	64.29
591.562	64.27
591.892	64.29
592.223	64.27
592.554	64.31
592.885	64.11
593.215	64.27
593.546	64.35
593.877	64.39
594.207	64.27
594.538	64.33
594.868	64.43
595.198	64.67
595.529	64.61
595.859	64.67
596.189	64.84
596.52	65.05
596.85	65.33
597.18	65.33
597.51	65.32
597.84	65.28
598.17	65.11
598.5	65.18
598.83	65.16
599.16	64.93
599.489	65.04
599.819	65.08
600.149	65.22
600.479	65.13
600.808	65.15
601.138	65.15
601.467	64.99
601.797	64.92
602.126	64.93
602.456	64.85
602.785	64.87
603.114	64.82
603.443	64.7
603.773	64.9
604.102	65.02
604.431	64.92
604.76	64.76
605.089	64.59
605.418	64.37
605.747	64.24
606.076	64.2
606.405	64.36
606.733	64.35
607.062	64.39
607.391	64.61
607.72	64.39
608.048	64.31
608.377	64.16
608.705	64.31
609.034	64.13
609.362	64.24
609.69	64.35
610.019	64.61
610.347	64.59
610.675	64.44
611.004	64.46
611.332	64.54
611.66	64.65
611.988	64.29
612.316	64.1
612.644	64.03
612.972	64.13
613.3	64
613.627	64.1
613.955	64.15
614.283	64.05
614.611	64.1
614.938	64.16
615.266	64.12
615.593	64.06
615.921	64.46
616.248	64.73
616.576	64.75
616.903	64.78
617.23	64.66
617.558	64.71
617.885	64.83
618.212	64.57
618.539	64.51
618.866	64.69
619.193	64.79
619.52	64.6
619.847	64.33
620.174	64.45
620.501	64.71
620.828	64.41
621.155	64.59
621.481	64.92
621.808	65.17
622.135	65.31
622.461	65.72
622.788	65.6
623.114	65.47
623.441	65.28
623.767	65.13
624.093	65.03
624.42	65.04
624.746	65.03
625.072	65
625.398	65.53
625.725	65.87
626.051	65.73
626.377	65.91
626.703	66.15
627.029	66.06
627.354	65.59
627.68	66.07
628.006	66.29
628.332	65.61
628.658	65.54
628.983	66.05
629.309	65.72
629.634	65.47
629.96	65.4
630.285	65.56
630.611	65.34
630.936	65.14
631.262	64.98
631.587	65.51
631.912	65.65
632.237	65.66
632.562	65.43
632.887	66.16
633.213	66.31
633.538	66.71
633.863	66.18
634.187	66.68
634.512	66.63
634.837	66.37
635.162	66.44
635.487	66.76
635.811	65.89
636.136	65.66
636.461	66.89
636.785	66.1
637.11	66.1
637.434	66.29
637.758	66.67
638.083	66.65
638.407	67.03
638.731	67.05
639.056	67.18
639.38	66.91
639.704	66.91
640.028	67.61
640.352	67.66
640.676	67.47
641	66.65
641.324	66.72
641.648	66.66
641.972	67.32
642.295	66.63
642.619	66.75
642.943	67.04
643.266	66.73
643.59	66.73
643.913	67.5
644.237	67.53
644.56	66.92
644.884	67.19
645.207	67.54
645.53	68.35
645.854	68.5
646.177	68.91
646.5	68.73
646.823	68.74
647.146	69.44
647.469	69.78
647.792	69.19
648.115	69.28
648.438	69.61
648.761	70.47
649.084	69.64
649.406	68.69
649.729	67.21
650.052	66.42
650.374	66.34
650.697	66.25
651.019	66.14
651.342	66.4
651.664	66.33
651.987	66.1
652.309	66.24
652.631	66.44
652.953	66.36
653.276	66.21
653.598	65.84
653.92	65.67
654.242	65.45
654.564	65.36
654.886	65.27
655.208	64.97
655.53	65.03
655.851	65.08
656.173	64.84
656.495	64.62
656.816	64.07
657.138	63.73
657.46	63.22
657.781	63.96
658.103	64.36
658.424	65.53
658.746	65.95
659.067	66.19
659.388	65.52
659.709	65.11
660.031	64.88
660.352	64.73
660.673	64.43
660.994	64.4
661.315	64.8
661.636	64.62
661.957	64.6
662.278	64.86
662.599	64.52
662.919	64.62
663.24	64.3
663.561	63.96
663.881	64.15
664.202	64
664.523	63.82
664.843	63.44
665.164	63.36
