Data from T1_Reflection__39__17-26-04-670.txt Node

Date: Wed Jun 02 17:26:04 CEST 2021
User: mabdelazizm
Spectrometer: FLMS18565
Trigger mode: 0
Integration Time (sec): 2.000000E0
Scans to average: 1
Electric dark correction enabled: true
Nonlinearity correction enabled: false
Boxcar width: 12
XAxis mode: Wavelengths
Number of Pixels in Spectrum: 2048
>>>>>Begin Spectral Data<<<<<
179.071	84.31
179.452	110.74
179.833	42.42
180.214	328.57
180.595	-4612.12
180.977	387.07
181.358	752.2
181.739	562.67
182.12	283.37
182.501	312.96
182.882	140.49
183.262	150.92
183.643	730.8
184.024	-7.87
184.405	46.15
184.786	46.01
185.166	38.3
185.547	36.05
185.927	29.13
186.308	31.01
186.689	28.83
187.069	27.03
187.449	23.83
187.83	19.81
188.21	14.59
188.59	13.07
188.971	9.7
189.351	7.93
189.731	13.19
190.111	14.67
190.491	14.4
190.871	10.37
191.251	10.15
191.631	9.65
192.011	10.61
192.391	11.79
192.771	11.88
193.151	11.9
193.531	5.89
193.91	3.48
194.29	2.02
194.67	1.62
195.049	3.85
195.429	4.22
195.808	3.98
196.188	4.36
196.567	5.7
196.946	5.36
197.326	6.21
197.705	4.72
198.084	6.49
198.464	6.81
198.843	7.24
199.222	8.3
199.601	8.05
199.98	8.16
200.359	8.2
200.738	9.33
201.117	7.52
201.496	8.07
201.875	7.52
202.254	7.17
202.632	6.8
203.011	7.32
203.39	6.46
203.768	7.09
204.147	8.17
204.525	6.59
204.904	6.5
205.282	5.84
205.661	5.62
206.039	5.31
206.418	4.98
206.796	5.64
207.174	6.41
207.552	6.36
207.931	6.42
208.309	5.61
208.687	4.86
209.065	5.58
209.443	5.81
209.821	6.18
210.199	5.39
210.577	5.9
210.954	4.44
211.332	4.46
211.71	4.04
212.088	4.56
212.465	4.47
212.843	4.75
213.221	4.86
213.598	4.07
213.976	4.32
214.353	3.61
214.731	2.88
215.108	2.78
215.485	2.75
215.863	2.79
216.24	2.51
216.617	3.53
216.994	2.58
217.371	2.69
217.749	3.48
218.126	3.33
218.503	3.22
218.88	2.91
219.256	2.81
219.633	3.18
220.01	3.85
220.387	4.78
220.764	4.91
221.14	5.03
221.517	4.76
221.894	5.17
222.27	5.1
222.647	4.91
223.023	5.03
223.4	4.7
223.776	4.63
224.153	4.89
224.529	5
224.905	4.77
225.282	4.75
225.658	4.74
226.034	4.05
226.41	4.24
226.786	3.97
227.162	3.78
227.538	3.77
227.914	3.49
228.29	3.54
228.666	3.39
229.042	3.37
229.418	3.1
229.793	3.02
230.169	2.72
230.545	2.6
230.92	2.62
231.296	2.51
231.672	2.52
232.047	2.47
232.422	2.4
232.798	2.51
233.173	2.52
233.549	2.5
233.924	2.28
234.299	2.26
234.674	2.35
235.05	2.11
235.425	2.21
235.8	2.26
236.175	2.4
236.55	2.41
236.925	2.36
237.3	2.55
237.675	2.5
238.049	2.7
238.424	2.6
238.799	2.56
239.174	2.5
239.548	2.62
239.923	2.58
240.297	2.54
240.672	2.66
241.046	2.64
241.421	2.57
241.795	2.48
242.17	2.4
242.544	2.41
242.918	2.41
243.293	2.46
243.667	2.49
244.041	2.48
244.415	2.51
244.789	2.59
245.163	2.53
245.537	2.48
245.911	2.39
246.285	2.42
246.659	2.32
247.033	2.35
247.406	2.2
247.78	2.14
248.154	2.2
248.528	2.3
248.901	2.2
249.275	2.22
249.648	2.22
250.022	2.12
250.395	2.17
250.769	2.23
251.142	2.29
251.515	2.38
251.888	2.45
252.262	2.52
252.635	2.51
253.008	2.43
253.381	2.29
253.754	2.36
254.127	2.31
254.5	2.35
254.873	2.35
255.246	2.43
255.619	2.35
255.992	2.31
256.364	2.33
256.737	2.39
257.11	2.41
257.483	2.37
257.855	2.24
258.228	2.34
258.6	2.36
258.973	2.43
259.345	2.42
259.718	2.31
260.09	2.29
260.462	2.33
260.834	2.3
261.207	2.28
261.579	2.23
261.951	2.22
262.323	2.25
262.695	2.26
263.067	2.21
263.439	2.16
263.811	2.1
264.183	2.09
264.555	2.02
264.927	2.08
265.298	2.1
265.67	2.04
266.042	1.99
266.413	2
266.785	2.02
267.156	2.08
267.528	1.99
267.899	1.93
268.271	1.87
268.642	1.92
269.013	2.02
269.385	1.99
269.756	1.94
270.127	1.93
270.498	1.95
270.87	1.94
271.241	1.96
271.612	1.97
271.983	2
272.354	2.01
272.724	2.05
273.095	2.04
273.466	2.02
273.837	2.1
274.208	2.09
274.578	2.06
274.949	2.08
275.32	2.15
275.69	2.18
276.061	2.16
276.431	2.14
276.802	2.19
277.172	2.23
277.542	2.21
277.913	2.16
278.283	2.07
278.653	2.09
279.023	2.11
279.394	2.03
279.764	2.01
280.134	1.98
280.504	2.01
280.874	1.97
281.244	1.92
281.614	1.86
281.983	1.79
282.353	1.87
282.723	1.88
283.093	1.82
283.462	1.73
283.832	1.73
284.202	1.7
284.571	1.66
284.941	1.63
285.31	1.61
285.68	1.6
286.049	1.56
286.418	1.58
286.788	1.68
287.157	1.61
287.526	1.62
287.895	1.59
288.264	1.55
288.633	1.62
289.002	1.56
289.371	1.53
289.74	1.47
290.109	1.42
290.478	1.46
290.847	1.52
291.216	1.52
291.585	1.43
291.953	1.39
292.322	1.31
292.691	1.41
293.059	1.42
293.428	1.46
293.796	1.43
294.165	1.43
294.533	1.47
294.901	1.47
295.27	1.54
295.638	1.56
296.006	1.46
296.374	1.55
296.743	1.57
297.111	1.59
297.479	1.58
297.847	1.56
298.215	1.52
298.583	1.45
298.95	1.42
299.318	1.46
299.686	1.46
300.054	1.49
300.422	1.55
300.789	1.54
301.157	1.51
301.525	1.55
301.892	1.42
302.26	1.37
302.627	1.29
302.994	1.27
303.362	1.27
303.729	1.24
304.097	1.24
304.464	1.17
304.831	1.08
305.198	1
305.565	0.98
305.932	0.95
306.299	0.93
306.666	0.92
307.033	0.93
307.4	1.04
307.767	1.09
308.134	1.14
308.501	1.13
308.867	1.06
309.234	0.92
309.601	0.87
309.967	0.83
310.334	0.88
310.701	0.91
311.067	0.98
311.433	0.98
311.8	1.02
312.166	0.97
312.533	0.99
312.899	0.95
313.265	0.96
313.631	0.99
313.997	1.04
314.363	1.01
314.729	0.93
315.096	0.96
315.461	0.93
315.827	0.86
316.193	0.82
316.559	0.75
316.925	0.8
317.291	0.76
317.656	0.74
318.022	0.82
318.388	0.93
318.753	0.93
319.119	1.03
319.484	1.12
319.85	1.12
320.215	1.17
320.581	1.25
320.946	1.17
321.311	1.25
321.676	1.22
322.042	1.22
322.407	1.16
322.772	1.09
323.137	1.14
323.502	1.25
323.867	1.21
324.232	1.22
324.597	1.23
324.962	1.27
325.327	1.31
325.691	1.27
326.056	1.25
326.421	1.28
326.785	1.37
327.15	1.4
327.514	1.39
327.879	1.44
328.243	1.39
328.608	1.22
328.972	1.19
329.337	1.07
329.701	1.02
330.065	1.06
330.429	1.05
330.794	1.08
331.158	1.09
331.522	1.07
331.886	1.13
332.25	1.11
332.614	1.01
332.978	1.11
333.342	1.05
333.705	1.06
334.069	1.06
334.433	1.08
334.797	1.13
335.16	1.11
335.524	1.09
335.887	0.96
336.251	0.89
336.614	0.8
336.978	0.76
337.341	0.77
337.705	0.81
338.068	0.91
338.431	0.96
338.794	0.93
339.158	0.86
339.521	0.82
339.884	0.7
340.247	0.71
340.61	0.7
340.973	0.65
341.336	0.62
341.699	0.61
342.062	0.62
342.424	0.59
342.787	0.57
343.15	0.53
343.512	0.39
343.875	0.35
344.238	0.4
344.6	0.38
344.963	0.44
345.325	0.42
345.688	0.42
346.05	0.35
346.412	0.36
346.775	0.35
347.137	0.31
347.499	0.35
347.861	0.36
348.223	0.45
348.585	0.49
348.947	0.51
349.309	0.53
349.671	0.56
350.033	0.67
350.395	0.65
350.757	0.68
351.118	0.68
351.48	0.63
351.842	0.57
352.203	0.6
352.565	0.69
352.927	0.67
353.288	0.63
353.65	0.69
354.011	0.64
354.372	0.66
354.734	0.68
355.095	0.75
355.456	0.71
355.817	0.7
356.179	0.65
356.54	0.56
356.901	0.61
357.262	0.65
357.623	0.63
357.984	0.72
358.345	0.7
358.705	0.69
359.066	0.6
359.427	0.6
359.788	0.54
360.148	0.58
360.509	0.71
360.87	0.76
361.23	0.86
361.591	0.89
361.951	0.95
362.312	0.96
362.672	0.86
363.032	0.85
363.393	0.84
363.753	0.96
364.113	0.97
364.473	1.02
364.833	1.04
365.193	1.02
365.553	1.07
365.913	1.11
366.273	1.17
366.633	1.17
366.993	1.04
367.353	1.04
367.713	0.98
368.072	0.93
368.432	1.01
368.792	1.02
369.151	0.94
369.511	0.92
369.87	0.96
370.23	0.9
370.589	0.87
370.949	0.74
371.308	0.78
371.667	0.84
372.027	0.82
372.386	0.88
372.745	0.83
373.104	0.79
373.463	0.78
373.822	0.75
374.181	0.77
374.54	0.77
374.899	0.7
375.258	0.52
375.617	0.52
375.975	0.54
376.334	0.4
376.693	0.47
377.052	0.51
377.41	0.49
377.769	0.46
378.127	0.48
378.486	0.49
378.844	0.5
379.202	0.48
379.561	0.37
379.919	0.48
380.277	0.34
380.636	0.38
380.994	0.48
381.352	0.46
381.71	0.53
382.068	0.54
382.426	0.51
382.784	0.6
383.142	0.58
383.5	0.57
383.857	0.59
384.215	0.67
384.573	0.67
384.931	0.76
385.288	0.82
385.646	0.77
386.003	0.74
386.361	0.74
386.718	0.81
387.076	0.89
387.433	0.79
387.791	0.8
388.148	0.79
388.505	0.84
388.862	0.79
389.22	0.91
389.577	0.74
389.934	0.7
390.291	0.77
390.648	0.66
391.005	0.63
391.362	0.65
391.718	0.63
392.075	0.58
392.432	0.56
392.789	0.53
393.145	0.6
393.502	0.55
393.859	0.54
394.215	0.5
394.572	0.45
394.928	0.42
395.285	0.38
395.641	0.39
395.997	0.25
396.354	0.31
396.71	0.37
397.066	0.35
397.422	0.48
397.778	0.58
398.134	0.48
398.491	0.59
398.846	0.59
399.202	0.51
399.558	0.47
399.914	0.52
400.27	0.53
400.626	0.47
400.981	0.52
401.337	0.53
401.693	0.59
402.048	0.6
402.404	0.65
402.759	0.65
403.115	0.77
403.47	0.94
403.826	1.06
404.181	1.02
404.536	0.93
404.892	1.11
405.247	1.12
405.602	1.08
405.957	1.07
406.312	1.04
406.667	0.92
407.022	0.98
407.377	1.07
407.732	1.05
408.087	1.13
408.442	1.19
408.796	1.11
409.151	1.06
409.506	1.02
409.86	0.98
410.215	0.96
410.57	0.95
410.924	0.85
411.279	0.89
411.633	0.89
411.987	0.86
412.342	0.69
412.696	0.62
413.05	0.75
413.404	0.78
413.758	0.87
414.113	0.93
414.467	0.94
414.821	1.02
415.175	0.98
415.529	1.12
415.882	1.09
416.236	1.01
416.59	1.05
416.944	1.04
417.298	1.07
417.651	1.17
418.005	1.3
418.358	1.42
418.712	1.48
419.065	1.44
419.419	1.48
419.772	1.49
420.126	1.47
420.479	1.46
420.832	1.55
421.185	1.68
421.539	1.7
421.892	1.59
422.245	1.62
422.598	1.44
422.951	1.38
423.304	1.41
423.657	1.41
424.01	1.41
424.363	1.43
424.715	1.39
425.068	1.49
425.421	1.47
425.773	1.52
426.126	1.57
426.479	1.47
426.831	1.45
427.184	1.45
427.536	1.51
427.889	1.63
428.241	1.56
428.593	1.58
428.945	1.61
429.298	1.6
429.65	1.58
430.002	1.57
430.354	1.58
430.706	1.58
431.058	1.64
431.41	1.71
431.762	1.8
432.114	1.78
432.466	1.76
432.817	1.75
433.169	1.69
433.521	1.85
433.872	1.8
434.224	1.87
434.576	1.87
434.927	1.72
435.279	1.84
435.63	1.81
435.981	1.75
436.333	1.7
436.684	1.65
437.035	1.67
437.387	1.69
437.738	1.73
438.089	1.77
438.44	1.75
438.791	1.74
439.142	1.79
439.493	1.78
439.844	1.77
440.195	1.73
440.545	1.66
440.896	1.67
441.247	1.7
441.598	1.76
441.948	1.72
442.299	1.62
442.649	1.57
443	1.55
443.35	1.53
443.701	1.62
444.051	1.64
444.401	1.68
444.752	1.64
445.102	1.64
445.452	1.72
445.802	1.66
446.152	1.63
446.502	1.7
446.852	1.84
447.202	1.78
447.552	1.94
447.902	1.89
448.252	2.05
448.602	3.46
448.952	3.54
449.301	3.56
449.651	3.58
450.001	3.53
450.35	3.55
450.7	3.55
451.049	3.54
451.399	3.64
451.748	3.68
452.097	3.69
452.447	3.65
452.796	3.58
453.145	3.55
453.494	3.68
453.843	3.71
454.193	3.86
454.542	4.01
454.891	4.12
455.239	4.04
455.588	3.87
455.937	3.89
456.286	3.91
456.635	3.99
456.984	3.9
457.332	2.3
457.681	2.19
458.03	2.21
458.378	2.21
458.727	2.32
459.075	2.31
459.423	2.53
459.772	2.69
460.12	2.77
460.468	2.83
460.817	2.91
461.165	2.87
461.513	2.88
461.861	3.06
462.209	3.16
462.557	3.12
462.905	2.89
463.253	2.92
463.601	2.86
463.949	2.87
464.297	2.91
464.644	2.98
464.992	2.94
465.34	2.85
465.687	2.87
466.035	2.94
466.383	3.02
466.73	3.09
467.078	3
467.425	3.04
467.772	3.02
468.12	2.97
468.467	2.9
468.814	2.89
469.161	2.84
469.508	2.64
469.856	2.61
470.203	2.58
470.55	2.43
470.897	2.44
471.243	2.38
471.59	2.43
471.937	2.43
472.284	2.57
472.631	2.52
472.977	2.52
473.324	2.54
473.671	2.48
474.017	2.45
474.364	2.43
474.71	2.33
475.057	2.33
475.403	2.25
475.749	2.34
476.096	2.27
476.442	2.3
476.788	2.29
477.134	2.28
477.48	2.25
477.826	2.21
478.172	2.33
478.518	2.34
478.864	2.39
479.21	2.47
479.556	2.36
479.902	2.43
480.248	2.39
480.593	2.26
480.939	2.21
481.285	2.2
481.63	2.24
481.976	2.25
482.321	2.28
482.667	2.35
483.012	2.47
483.357	2.43
483.703	2.4
484.048	2.51
484.393	2.56
484.738	2.62
485.084	2.62
485.429	2.7
485.774	2.9
486.119	3
486.464	3.27
486.808	3.47
487.153	3.68
487.498	3.9
487.843	4.05
488.188	4.26
488.532	4.43
488.877	4.65
489.222	4.93
489.566	5.14
489.911	5.47
490.255	5.75
490.6	6.14
490.944	6.44
491.288	6.74
491.633	6.96
491.977	7.43
492.321	7.96
492.665	8.33
493.009	8.75
493.353	9.25
493.697	9.77
494.041	10.3
494.385	10.71
494.729	11.26
495.073	11.76
495.417	12.35
495.76	12.89
496.104	13.42
496.448	13.97
496.791	14.62
497.135	15.25
497.479	15.97
497.822	16.75
498.165	17.55
498.509	18.32
498.852	19.04
499.196	19.73
499.539	20.47
499.882	21.24
500.225	22.13
500.568	22.77
500.911	23.41
501.254	24.13
501.597	24.9
501.94	25.64
502.283	26.26
502.626	26.86
502.969	27.59
503.312	28.22
503.654	28.83
503.997	29.41
504.34	30.12
504.682	30.81
505.025	31.52
505.367	32.13
505.71	32.78
506.052	33.46
506.395	33.97
506.737	34.56
507.079	35.23
507.421	35.84
507.764	36.52
508.106	37.17
508.448	37.76
508.79	38.2
509.132	38.7
509.474	39.23
509.816	39.79
510.158	40.21
510.499	40.7
510.841	41.24
511.183	41.7
511.525	42.07
511.866	42.57
512.208	43.12
512.549	43.57
512.891	44.02
513.232	44.35
513.574	44.73
513.915	45.14
514.256	45.61
514.598	45.84
514.939	46.37
515.28	46.61
515.621	46.73
515.962	47.13
516.303	47.38
516.644	47.58
516.985	47.96
517.326	48.33
517.667	48.68
518.008	48.94
518.349	49.19
518.69	49.61
519.03	49.83
519.371	50.04
519.712	50.34
520.052	50.55
520.393	50.78
520.733	50.92
521.074	51.17
521.414	51.53
521.754	51.79
522.095	52.05
522.435	52.33
522.775	52.6
523.115	52.94
523.455	52.98
523.795	53.26
524.135	53.59
524.475	53.72
524.815	53.92
525.155	54.27
525.495	54.3
525.835	54.42
526.175	54.77
526.514	55.06
526.854	55.25
527.194	55.31
527.533	55.42
527.873	55.79
528.212	56
528.552	56.35
528.891	56.45
529.23	56.56
529.57	56.56
529.909	56.51
530.248	56.65
530.587	56.96
530.927	56.93
531.266	57.04
531.605	57.16
531.944	57.38
532.283	57.64
532.621	57.81
532.96	58.07
533.299	58.26
533.638	58.37
533.977	58.79
534.315	59.08
534.654	59.13
534.992	59.18
535.331	59.15
535.67	59.19
536.008	59.38
536.346	59.25
536.685	59.13
537.023	59.09
537.361	59.21
537.7	59.25
538.038	59.5
538.376	59.68
538.714	59.84
539.052	59.7
539.39	59.96
539.728	60.13
540.066	60.32
540.404	60.38
540.741	60.31
541.079	60.39
541.417	60.2
541.755	60.14
542.092	60.24
542.43	59.95
542.767	59.79
543.105	59.74
543.442	59.72
543.78	59.97
544.117	60.13
544.454	60.04
544.792	60.26
545.129	60.42
545.466	60.65
545.803	60.83
546.14	60.8
546.477	60.81
546.814	60.78
547.151	60.77
547.488	60.97
547.825	60.91
548.162	60.81
548.499	60.83
548.835	60.77
549.172	60.8
549.509	60.7
549.845	60.79
550.182	60.84
550.518	60.58
550.855	60.76
551.191	60.8
551.528	60.9
551.864	60.98
552.2	60.82
552.537	60.72
552.873	60.87
553.209	60.95
553.545	61
553.881	60.97
554.217	61.14
554.553	61.45
554.889	61.46
555.225	61.44
555.561	61.39
555.896	61.32
556.232	61.4
556.568	61.52
556.903	61.54
557.239	61.59
557.575	61.61
557.91	61.82
558.245	62
558.581	62.18
558.916	62.46
559.252	62.56
559.587	62.63
559.922	62.65
560.257	62.62
560.592	62.81
560.928	62.94
561.263	63.06
561.598	63.04
561.933	63.1
562.267	63.09
562.602	62.78
562.937	62.73
563.272	63.03
563.607	63.33
563.941	63.62
564.276	63.65
564.611	63.92
564.945	63.88
565.28	63.8
565.614	63.98
565.949	64.11
566.283	64.08
566.617	64.09
566.951	64.06
567.286	64.2
567.62	64.2
567.954	64.58
568.288	64.76
568.622	64.75
568.956	64.59
569.29	64.62
569.624	64.67
569.958	64.67
570.292	64.64
570.626	64.58
570.959	64.65
571.293	64.81
571.627	64.86
571.96	64.85
572.294	64.7
572.627	64.76
572.961	64.63
573.294	64.67
573.627	64.67
573.961	64.63
574.294	64.65
574.627	64.77
574.961	64.72
575.294	64.65
575.627	64.46
575.96	64.39
576.293	64.18
576.626	64.06
576.959	64.15
577.292	64.37
577.624	64.26
577.957	64.26
578.29	64.47
578.623	64.54
578.955	64.69
579.288	64.71
579.62	64.62
579.953	64.61
580.285	64.61
580.618	64.8
580.95	64.84
581.282	64.81
581.615	64.87
581.947	65.01
582.279	65.01
582.611	65.09
582.943	65.02
583.275	65.24
583.607	65.36
583.939	65.53
584.271	65.63
584.603	65.71
584.935	65.8
585.267	65.68
585.598	65.61
585.93	65.93
586.262	65.99
586.593	65.71
586.925	65.56
587.256	65.6
587.588	65.65
587.919	65.68
588.25	65.53
588.582	65.37
588.913	65.43
589.244	65.52
589.575	65.73
589.907	65.83
590.238	65.91
590.569	66
590.9	65.9
591.231	65.84
591.562	65.71
591.892	65.67
592.223	65.83
592.554	65.92
592.885	65.82
593.215	65.73
593.546	65.86
593.877	65.73
594.207	65.68
594.538	65.66
594.868	65.72
595.198	65.94
595.529	65.89
595.859	65.99
596.189	66.09
596.52	66.14
596.85	66.32
597.18	66.26
597.51	65.92
597.84	65.73
598.17	65.63
598.5	65.57
598.83	65.57
599.16	65.6
599.489	65.71
599.819	65.73
600.149	65.61
600.479	65.42
600.808	65.29
601.138	65.25
601.467	65.21
601.797	65.09
602.126	65.04
602.456	64.87
602.785	64.91
603.114	64.92
603.443	64.92
603.773	64.94
604.102	64.8
604.431	64.58
604.76	64.6
605.089	64.57
605.418	64.63
605.747	64.6
606.076	64.57
606.405	64.57
606.733	64.61
607.062	64.58
607.391	64.47
607.72	64.42
608.048	64.28
608.377	64.54
608.705	64.51
609.034	64.47
609.362	64.5
609.69	64.69
610.019	64.92
610.347	65.1
610.675	65.2
611.004	65.22
611.332	65.44
611.66	65.62
611.988	65.5
612.316	65.61
612.644	65.82
612.972	65.86
613.3	65.82
613.627	65.54
613.955	65.59
614.283	65.6
614.611	65.67
614.938	65.78
615.266	65.85
615.593	66.09
615.921	65.85
616.248	66.16
616.576	65.72
616.903	65.67
617.23	65.72
617.558	65.96
617.885	65.77
618.212	65.57
618.539	65.46
618.866	65.49
619.193	65.29
619.52	65.05
619.847	64.56
620.174	64.65
620.501	64.63
620.828	64.7
621.155	64.68
621.481	64.34
621.808	64.58
622.135	64.93
622.461	65.53
622.788	65.47
623.114	65.25
623.441	65.03
623.767	64.8
624.093	65.19
624.42	64.93
624.746	65.5
625.072	66.26
625.398	66.49
625.725	66.68
626.051	66.73
626.377	67.32
626.703	67.16
627.029	66.87
627.354	67.02
627.68	67.1
628.006	67.44
628.332	66.8
628.658	67.07
628.983	67.39
629.309	67.15
629.634	67.51
629.96	67.36
630.285	67.76
630.611	67.47
630.936	67.71
631.262	67.98
631.587	68.49
631.912	68.33
632.237	68.24
632.562	68.66
632.887	68.48
633.213	68
633.538	67.78
633.863	67.36
634.187	68.12
634.512	67.18
634.837	67.56
635.162	68.01
635.487	67.86
635.811	67.19
636.136	67.81
636.461	68.65
636.785	68.05
637.11	67.2
637.434	67.58
637.758	67.87
638.083	67.99
638.407	67.91
638.731	67.82
639.056	67.94
639.38	67.73
639.704	67.96
640.028	68.93
640.352	68.7
640.676	68.07
641	68.16
641.324	67.81
641.648	68.52
641.972	68.43
642.295	67.79
642.619	68.12
642.943	68.42
643.266	68.38
643.59	68.48
643.913	69.08
644.237	68.15
644.56	67.94
644.884	68.02
645.207	68.81
645.53	69.05
645.854	69.29
646.177	69.44
646.5	69.29
646.823	68.92
647.146	68.85
647.469	68.49
647.792	67.93
648.115	67.44
648.438	67.88
648.761	69.36
649.084	69.05
649.406	68.34
649.729	66.69
650.052	66.36
650.374	66.22
650.697	66.2
651.019	66.04
651.342	65.99
651.664	66.01
651.987	65.91
652.309	66.11
652.631	66.25
652.953	66.22
653.276	66.1
653.598	65.79
653.92	65.75
654.242	65.74
654.564	65.8
654.886	65.8
655.208	65.82
655.53	66.03
655.851	66.16
656.173	66.3
656.495	66.36
656.816	65.8
657.138	65.48
657.46	65.49
657.781	67.26
658.103	67.91
658.424	68.96
658.746	69.84
659.067	70.06
659.388	70.96
659.709	70.78
660.031	71.51
660.352	71.41
660.673	70.75
660.994	70.76
661.315	71.21
661.636	72.45
661.957	71.49
662.278	70.56
662.599	69.96
662.919	70.45
663.24	69.33
663.561	68.98
663.881	68.72
664.202	68.34
664.523	67.51
664.843	67.08
