Data from T1_Reflection__66__17-45-22-634.txt Node

Date: Wed Jun 02 17:45:22 CEST 2021
User: mabdelazizm
Spectrometer: FLMS18565
Trigger mode: 0
Integration Time (sec): 2.000000E0
Scans to average: 1
Electric dark correction enabled: true
Nonlinearity correction enabled: false
Boxcar width: 12
XAxis mode: Wavelengths
Number of Pixels in Spectrum: 2048
>>>>>Begin Spectral Data<<<<<
179.071	-14.01
179.452	-148.76
179.833	-157.58
180.214	133.33
180.595	-2339.39
180.977	193.16
181.358	115.12
181.739	192
182.12	156.79
182.501	176.74
182.882	89.14
183.262	119.02
183.643	427.38
184.024	11.87
184.405	41.07
184.786	47.8
185.166	35.12
185.547	21.94
185.927	16.47
186.308	19.54
186.689	15.44
187.069	14.28
187.449	13.66
187.83	15.67
188.21	15.18
188.59	10.06
188.971	9.96
189.351	9.99
189.731	11.95
190.111	15.91
190.491	16.27
190.871	11.19
191.251	12.78
191.631	15.4
192.011	15.22
192.391	15.45
192.771	18.2
193.151	16.29
193.531	14.81
193.91	11.24
194.29	9.24
194.67	7.42
195.049	9.25
195.429	8.68
195.808	7.72
196.188	8.91
196.567	10.2
196.946	9.41
197.326	8.94
197.705	7.98
198.084	9.63
198.464	7.88
198.843	10.05
199.222	12.36
199.601	10.55
199.98	10.04
200.359	10.79
200.738	11.13
201.117	9.3
201.496	8.93
201.875	8.02
202.254	6.64
202.632	6.35
203.011	6.62
203.39	7.13
203.768	8.03
204.147	9.27
204.525	8.8
204.904	8.65
205.282	9.39
205.661	9.55
206.039	9.63
206.418	8.96
206.796	9.51
207.174	10.08
207.552	10.01
207.931	10.77
208.309	9.9
208.687	8.56
209.065	9.5
209.443	9.42
209.821	8.89
210.199	8.02
210.577	7.76
210.954	7.43
211.332	7.48
211.71	7.53
212.088	8.27
212.465	7.42
212.843	8
213.221	7.8
213.598	7.1
213.976	6.52
214.353	5.81
214.731	4.93
215.108	4.24
215.485	3.61
215.863	3.89
216.24	3.5
216.617	3.92
216.994	3.4
217.371	3.76
217.749	3.55
218.126	3.17
218.503	2.97
218.88	2.74
219.256	2.87
219.633	3.3
220.01	4.16
220.387	4.88
220.764	5.43
221.14	5.48
221.517	5.2
221.894	5.19
222.27	5.15
222.647	5.07
223.023	5.35
223.4	5.41
223.776	5.74
224.153	5.83
224.529	5.86
224.905	6.03
225.282	6.1
225.658	6.26
226.034	5.59
226.41	6
226.786	5.76
227.162	5.58
227.538	5.65
227.914	5.53
228.29	5.57
228.666	5.38
229.042	5.13
229.418	4.82
229.793	4.6
230.169	4.42
230.545	4.31
230.92	4.3
231.296	4.32
231.672	4.19
232.047	4.06
232.422	3.77
232.798	3.57
233.173	3.54
233.549	3.63
233.924	3.47
234.299	3.41
234.674	3.27
235.05	2.96
235.425	3.06
235.8	2.85
236.175	2.77
236.55	2.74
236.925	2.63
237.3	2.65
237.675	2.63
238.049	2.8
238.424	3.01
238.799	2.9
239.174	2.92
239.548	2.96
239.923	2.86
240.297	2.86
240.672	2.82
241.046	2.87
241.421	2.9
241.795	2.87
242.17	2.93
242.544	2.92
242.918	2.72
243.293	2.75
243.667	2.72
244.041	2.81
244.415	2.87
244.789	2.94
245.163	2.96
245.537	2.96
245.911	2.95
246.285	2.99
246.659	3
247.033	3.03
247.406	2.92
247.78	2.79
248.154	2.89
248.528	2.99
248.901	2.98
249.275	3.07
249.648	3.09
250.022	3.1
250.395	3.12
250.769	3.11
251.142	3.21
251.515	3.21
251.888	3.29
252.262	3.39
252.635	3.45
253.008	3.4
253.381	3.39
253.754	3.46
254.127	3.39
254.5	3.37
254.873	3.37
255.246	3.45
255.619	3.45
255.992	3.45
256.364	3.48
256.737	3.56
257.11	3.6
257.483	3.54
257.855	3.42
258.228	3.45
258.6	3.45
258.973	3.51
259.345	3.53
259.718	3.53
260.09	3.53
260.462	3.53
260.834	3.55
261.207	3.45
261.579	3.44
261.951	3.35
262.323	3.39
262.695	3.36
263.067	3.26
263.439	3.24
263.811	3.27
264.183	3.26
264.555	3.21
264.927	3.19
265.298	3.13
265.67	3.07
266.042	3
266.413	2.88
266.785	2.96
267.156	2.96
267.528	2.86
267.899	2.8
268.271	2.69
268.642	2.7
269.013	2.74
269.385	2.72
269.756	2.66
270.127	2.66
270.498	2.79
270.87	2.84
271.241	2.86
271.612	2.81
271.983	2.79
272.354	2.79
272.724	2.84
273.095	2.85
273.466	2.94
273.837	2.95
274.208	2.95
274.578	2.91
274.949	2.93
275.32	2.95
275.69	3.07
276.061	3.03
276.431	3.08
276.802	3.08
277.172	3.14
277.542	3.13
277.913	3.1
278.283	3.03
278.653	3.06
279.023	3.1
279.394	3.02
279.764	2.94
280.134	2.89
280.504	2.89
280.874	2.84
281.244	2.76
281.614	2.76
281.983	2.7
282.353	2.72
282.723	2.63
283.093	2.63
283.462	2.55
283.832	2.59
284.202	2.57
284.571	2.53
284.941	2.45
285.31	2.42
285.68	2.37
286.049	2.29
286.418	2.22
286.788	2.31
287.157	2.25
287.526	2.23
287.895	2.14
288.264	2.13
288.633	2.17
289.002	2.12
289.371	2.11
289.74	2.05
290.109	2.02
290.478	2.1
290.847	2.08
291.216	2.1
291.585	1.98
291.953	1.95
292.322	1.87
292.691	1.9
293.059	1.86
293.428	1.84
293.796	1.83
294.165	1.84
294.533	1.84
294.901	1.87
295.27	2
295.638	2
296.006	1.91
296.374	1.91
296.743	1.88
297.111	1.92
297.479	1.89
297.847	1.88
298.215	1.82
298.583	1.74
298.95	1.67
299.318	1.73
299.686	1.66
300.054	1.69
300.422	1.65
300.789	1.69
301.157	1.69
301.525	1.7
301.892	1.77
302.26	1.71
302.627	1.66
302.994	1.68
303.362	1.64
303.729	1.62
304.097	1.65
304.464	1.62
304.831	1.64
305.198	1.58
305.565	1.6
305.932	1.61
306.299	1.65
306.666	1.66
307.033	1.63
307.4	1.73
307.767	1.73
308.134	1.79
308.501	1.86
308.867	1.89
309.234	1.85
309.601	1.87
309.967	1.88
310.334	1.91
310.701	1.93
311.067	1.86
311.433	1.96
311.8	2.06
312.166	2
312.533	2.07
312.899	2.02
313.265	1.99
313.631	1.98
313.997	1.94
314.363	1.98
314.729	1.94
315.096	1.88
315.461	1.86
315.827	1.89
316.193	1.95
316.559	1.88
316.925	1.95
317.291	1.94
317.656	1.88
318.022	1.83
318.388	1.9
318.753	1.87
319.119	1.87
319.484	1.92
319.85	1.96
320.215	1.99
320.581	1.96
320.946	1.86
321.311	1.92
321.676	1.88
322.042	1.93
322.407	1.89
322.772	1.86
323.137	1.89
323.502	1.87
323.867	1.8
324.232	1.84
324.597	1.78
324.962	1.73
325.327	1.71
325.691	1.76
326.056	1.78
326.421	1.85
326.785	1.88
327.15	1.98
327.514	1.98
327.879	2.04
328.243	2.02
328.608	1.88
328.972	1.89
329.337	1.78
329.701	1.68
330.065	1.72
330.429	1.7
330.794	1.67
331.158	1.69
331.522	1.73
331.886	1.75
332.25	1.75
332.614	1.71
332.978	1.83
333.342	1.81
333.705	1.84
334.069	1.89
334.433	1.82
334.797	1.77
335.16	1.7
335.524	1.69
335.887	1.7
336.251	1.55
336.614	1.47
336.978	1.44
337.341	1.45
337.705	1.5
338.068	1.61
338.431	1.74
338.794	1.75
339.158	1.73
339.521	1.73
339.884	1.72
340.247	1.72
340.61	1.66
340.973	1.64
341.336	1.59
341.699	1.58
342.062	1.5
342.424	1.52
342.787	1.48
343.15	1.45
343.512	1.42
343.875	1.46
344.238	1.52
344.6	1.5
344.963	1.5
345.325	1.58
345.688	1.55
346.05	1.57
346.412	1.53
346.775	1.54
347.137	1.41
347.499	1.42
347.861	1.43
348.223	1.41
348.585	1.34
348.947	1.26
349.309	1.26
349.671	1.26
350.033	1.27
350.395	1.29
350.757	1.34
351.118	1.38
351.48	1.36
351.842	1.28
352.203	1.27
352.565	1.43
352.927	1.37
353.288	1.34
353.65	1.37
354.011	1.36
354.372	1.35
354.734	1.43
355.095	1.41
355.456	1.43
355.817	1.39
356.179	1.37
356.54	1.3
356.901	1.36
357.262	1.44
357.623	1.5
357.984	1.61
358.345	1.59
358.705	1.65
359.066	1.56
359.427	1.52
359.788	1.51
360.148	1.62
360.509	1.74
360.87	1.82
361.23	1.84
361.591	1.78
361.951	1.8
362.312	1.76
362.672	1.7
363.032	1.6
363.393	1.64
363.753	1.67
364.113	1.63
364.473	1.7
364.833	1.69
365.193	1.62
365.553	1.68
365.913	1.64
366.273	1.67
366.633	1.68
366.993	1.56
367.353	1.55
367.713	1.49
368.072	1.53
368.432	1.57
368.792	1.64
369.151	1.51
369.511	1.45
369.87	1.47
370.23	1.47
370.589	1.39
370.949	1.29
371.308	1.35
371.667	1.38
372.027	1.41
372.386	1.36
372.745	1.35
373.104	1.36
373.463	1.36
373.822	1.31
374.181	1.41
374.54	1.35
374.899	1.38
375.258	1.28
375.617	1.21
375.975	1.29
376.334	1.21
376.693	1.24
377.052	1.3
377.41	1.29
377.769	1.15
378.127	1.14
378.486	1.13
378.844	1.14
379.202	1.1
379.561	1.12
379.919	1.23
380.277	1.15
380.636	1.14
380.994	1.17
381.352	1.27
381.71	1.25
382.068	1.29
382.426	1.24
382.784	1.31
383.142	1.36
383.5	1.38
383.857	1.48
384.215	1.52
384.573	1.58
384.931	1.61
385.288	1.63
385.646	1.53
386.003	1.53
386.361	1.53
386.718	1.65
387.076	1.76
387.433	1.74
387.791	1.77
388.148	1.79
388.505	1.76
388.862	1.81
389.22	1.96
389.577	1.98
389.934	2.12
390.291	2.18
390.648	2.17
391.005	2.14
391.362	2.17
391.718	2.19
392.075	2.07
392.432	2.03
392.789	1.91
393.145	1.98
393.502	1.9
393.859	2.04
394.215	2.09
394.572	2.21
394.928	2.23
395.285	2.27
395.641	2.33
395.997	2.37
396.354	2.43
396.71	2.43
397.066	2.48
397.422	2.77
397.778	2.71
398.134	2.68
398.491	2.67
398.846	2.65
399.202	2.63
399.558	2.74
399.914	2.88
400.27	2.93
400.626	3
400.981	3.14
401.337	3.27
401.693	3.43
402.048	3.47
402.404	3.69
402.759	3.65
403.115	3.79
403.47	3.97
403.826	4.07
404.181	4.06
404.536	4.12
404.892	4.28
405.247	4.35
405.602	4.51
405.957	4.63
406.312	4.64
406.667	4.83
407.022	4.94
407.377	5.21
407.732	5.39
408.087	5.5
408.442	5.59
408.796	5.6
409.151	5.72
409.506	5.94
409.86	6.15
410.215	6.33
410.57	6.56
410.924	6.72
411.279	6.84
411.633	7.15
411.987	7.36
412.342	7.49
412.696	7.76
413.05	8.17
413.404	8.32
413.758	8.64
414.113	8.98
414.467	9.28
414.821	9.66
415.175	9.93
415.529	10.2
415.882	10.41
416.236	10.61
416.59	10.86
416.944	11.18
417.298	11.65
417.651	12.06
418.005	12.44
418.358	12.83
418.712	13.18
419.065	13.49
419.419	13.7
419.772	14.05
420.126	14.38
420.479	14.72
420.832	15.18
421.185	15.6
421.539	15.92
421.892	16.08
422.245	16.53
422.598	16.74
422.951	17.02
423.304	17.3
423.657	17.55
424.01	17.87
424.363	18.3
424.715	18.76
425.068	19.14
425.421	19.5
425.773	19.71
426.126	20.04
426.479	20.43
426.831	20.83
427.184	21.05
427.536	21.28
427.889	21.55
428.241	21.9
428.593	22.18
428.945	22.53
429.298	22.69
429.65	22.85
430.002	23.16
430.354	23.4
430.706	23.74
431.058	23.9
431.41	24.19
431.762	24.53
432.114	24.82
432.466	25.13
432.817	25.4
433.169	25.64
433.521	25.96
433.872	26.29
434.224	26.45
434.576	26.78
434.927	26.81
435.279	26.91
435.63	26.98
435.981	27.2
436.333	27.51
436.684	27.7
437.035	27.81
437.387	28.03
437.738	28.23
438.089	28.48
438.44	28.67
438.791	28.69
439.142	28.9
439.493	29.09
439.844	29.3
440.195	29.52
440.545	29.52
440.896	29.48
441.247	29.58
441.598	29.58
441.948	29.61
442.299	29.65
442.649	29.71
443	29.78
443.35	29.88
443.701	29.95
444.051	30.03
444.401	30.13
444.752	30.1
445.102	30.13
445.452	30.28
445.802	30.44
446.152	30.58
446.502	30.7
446.852	30.76
447.202	30.86
447.552	31.06
447.902	31.06
448.252	31.05
448.602	32.66
448.952	32.81
449.301	33
449.651	33.25
450.001	33.3
450.35	33.44
450.7	33.55
451.049	33.71
451.399	33.95
451.748	34.26
452.097	34.56
452.447	34.82
452.796	35.04
453.145	35.28
453.494	35.57
453.843	35.61
454.193	35.86
454.542	35.96
454.891	36.17
455.239	36.34
455.588	36.56
455.937	36.75
456.286	36.95
456.635	37.12
456.984	37.41
457.332	35.85
457.681	35.84
458.03	35.99
458.378	36.18
458.727	36.52
459.075	37
459.423	37.38
459.772	37.57
460.12	37.72
460.468	37.72
460.817	37.84
461.165	37.94
461.513	38.03
461.861	38.25
462.209	38.46
462.557	38.66
462.905	38.66
463.253	38.8
463.601	38.88
463.949	38.92
464.297	38.95
464.644	39.06
464.992	39.04
465.34	39.24
465.687	39.29
466.035	39.42
466.383	39.54
466.73	39.54
467.078	39.54
467.425	39.48
467.772	39.27
468.12	39.2
468.467	39.2
468.814	39.02
469.161	39.11
469.508	38.95
469.856	38.86
470.203	38.91
470.55	38.68
470.897	38.64
471.243	38.63
471.59	38.65
471.937	38.67
472.284	38.63
472.631	38.55
472.977	38.51
473.324	38.63
473.671	38.58
474.017	38.62
474.364	38.64
474.71	38.47
475.057	38.38
475.403	38.37
475.749	38.48
476.096	38.44
476.442	38.52
476.788	38.64
477.134	38.65
477.48	38.83
477.826	38.9
478.172	39.07
478.518	39.32
478.864	39.35
479.21	39.54
479.556	39.65
479.902	39.6
480.248	39.67
480.593	39.78
480.939	39.88
481.285	40.13
481.63	40.32
481.976	40.39
482.321	40.61
482.667	40.66
483.012	40.8
483.357	41.02
483.703	41.24
484.048	41.59
484.393	41.77
484.738	42.05
485.084	42.31
485.429	42.35
485.774	42.63
486.119	42.85
486.464	43.13
486.808	43.34
487.153	43.5
487.498	43.75
487.843	43.97
488.188	44.09
488.532	44.51
488.877	44.86
489.222	45.14
489.566	45.34
489.911	45.55
490.255	45.92
490.6	46.29
490.944	46.6
491.288	46.85
491.633	47.02
491.977	47.37
492.321	47.66
492.665	47.77
493.009	47.91
493.353	48.12
493.697	48.34
494.041	48.72
494.385	48.86
494.729	49.13
495.073	49.27
495.417	49.59
495.76	49.78
496.104	50.02
496.448	50.18
496.791	50.52
497.135	50.63
497.479	50.74
497.822	50.99
498.165	51.28
498.509	51.55
498.852	51.58
499.196	51.66
499.539	51.78
499.882	52.03
500.225	52.38
500.568	52.51
500.911	52.56
501.254	52.71
501.597	53.03
501.94	53.07
502.283	53.06
502.626	53.16
502.969	53.55
503.312	53.49
503.654	53.61
503.997	53.58
504.34	53.77
504.682	54.01
505.025	54.15
505.367	54.16
505.71	54.18
506.052	54.29
506.395	54.38
506.737	54.45
507.079	54.56
507.421	54.68
507.764	54.76
508.106	54.9
508.448	55.03
508.79	54.92
509.132	54.99
509.474	55.09
509.816	55.13
510.158	55.02
510.499	55.24
510.841	55.32
511.183	55.37
511.525	55.15
511.866	55.32
512.208	55.42
512.549	55.54
512.891	55.48
513.232	55.35
513.574	55.41
513.915	55.42
514.256	55.63
514.598	55.72
514.939	55.72
515.28	55.79
515.621	55.77
515.962	55.72
516.303	55.67
516.644	55.51
516.985	55.48
517.326	55.74
517.667	55.66
518.008	55.53
518.349	55.61
518.69	55.64
519.03	55.39
519.371	55.44
519.712	55.43
520.052	55.4
520.393	55.44
520.733	55.52
521.074	55.42
521.414	55.47
521.754	55.38
522.095	55.36
522.435	55.43
522.775	55.34
523.115	55.42
523.455	55.34
523.795	55.28
524.135	55.21
524.475	55.08
524.815	55.03
525.155	55.14
525.495	55.06
525.835	54.8
526.175	54.79
526.514	54.95
526.854	54.98
527.194	54.99
527.533	55.24
527.873	55.37
528.212	55.38
528.552	55.56
528.891	55.43
529.23	55.38
529.57	55.44
529.909	55.32
530.248	55.43
530.587	55.42
530.927	55.35
531.266	55.4
531.605	55.23
531.944	55.4
532.283	55.41
532.621	55.54
532.96	55.79
533.299	55.84
533.638	55.9
533.977	56.16
534.315	56.2
534.654	56.35
534.992	56.34
535.331	56.2
535.67	56.12
536.008	56.1
536.346	55.87
536.685	55.76
537.023	55.54
537.361	55.58
537.7	55.48
538.038	55.4
538.376	55.57
538.714	55.72
539.052	55.69
539.39	55.79
539.728	55.91
540.066	56.15
540.404	56.06
540.741	56.11
541.079	56.11
541.417	55.99
541.755	56.05
542.092	56.17
542.43	55.77
542.767	55.81
543.105	55.67
543.442	55.67
543.78	55.86
544.117	55.98
544.454	55.85
544.792	56.01
545.129	56.11
545.466	56.39
545.803	56.44
546.14	56.49
546.477	56.56
546.814	56.51
547.151	56.33
547.488	56.5
547.825	56.49
548.162	56.23
548.499	56.06
548.835	56.06
549.172	56.1
549.509	56.09
549.845	56.24
550.182	56.22
550.518	55.9
550.855	56.07
551.191	56.1
551.528	55.97
551.864	55.95
552.2	55.83
552.537	55.85
552.873	56.03
553.209	56.01
553.545	55.9
553.881	55.9
554.217	56.03
554.553	56.28
554.889	56.19
555.225	56.08
555.561	56.1
555.896	56.15
556.232	56.1
556.568	56.24
556.903	56.33
557.239	56.39
557.575	56.21
557.91	56.3
558.245	56.29
558.581	56.48
558.916	56.62
559.252	56.68
559.587	56.73
559.922	57.08
560.257	57.31
560.592	57.28
560.928	57.25
561.263	57.31
561.598	57.41
561.933	57.71
562.267	57.68
562.602	57.59
562.937	57.37
563.272	57.62
563.607	58.01
563.941	58
564.276	57.9
564.611	58.1
564.945	58.09
565.28	57.9
565.614	57.93
565.949	57.82
566.283	57.72
566.617	57.79
566.951	57.76
567.286	57.9
567.62	57.95
567.954	58.12
568.288	58.12
568.622	57.93
568.956	57.97
569.29	57.99
569.624	57.94
569.958	57.87
570.292	57.77
570.626	57.75
570.959	57.79
571.293	58.04
571.627	57.99
571.96	57.9
572.294	57.82
572.627	57.79
572.961	57.7
573.294	57.81
573.627	57.84
573.961	57.84
574.294	57.97
574.627	58.06
574.961	58.03
575.294	57.92
575.627	57.82
575.96	57.65
576.293	57.56
576.626	57.51
576.959	57.48
577.292	57.54
577.624	57.44
577.957	57.41
578.29	57.55
578.623	57.59
578.955	57.55
579.288	57.54
579.62	57.27
579.953	57.32
580.285	57.31
580.618	57.44
580.95	57.63
581.282	57.67
581.615	57.75
581.947	57.8
582.279	57.67
582.611	57.76
582.943	57.69
583.275	57.78
583.607	57.78
583.939	57.75
584.271	57.91
584.603	57.93
584.935	57.95
585.267	58.06
585.598	57.97
585.93	58.25
586.262	58.33
586.593	58.27
586.925	58.24
587.256	58.25
587.588	58.15
587.919	58.31
588.25	58.2
588.582	58.06
588.913	58.22
589.244	58
589.575	58.21
589.907	58.14
590.238	58.25
590.569	58.56
590.9	58.58
591.231	58.66
591.562	58.66
591.892	58.79
592.223	58.86
592.554	58.84
592.885	58.77
593.215	58.69
593.546	58.81
593.877	58.83
594.207	58.72
594.538	58.67
594.868	58.6
595.198	58.69
595.529	58.76
595.859	58.93
596.189	59.08
596.52	59.19
596.85	59.43
597.18	59.25
597.51	59.3
597.84	59.12
598.17	58.97
598.5	59.01
598.83	58.89
599.16	58.97
599.489	58.93
599.819	58.88
600.149	58.84
600.479	58.83
600.808	58.86
601.138	58.84
601.467	58.82
601.797	58.7
602.126	58.81
602.456	58.83
602.785	58.94
603.114	58.97
603.443	59.02
603.773	59.14
604.102	59.18
604.431	59.05
604.76	59.02
605.089	58.96
605.418	59.04
605.747	58.97
606.076	58.79
606.405	58.94
606.733	59.01
607.062	58.94
607.391	58.7
607.72	58.66
608.048	58.43
608.377	58.46
608.705	58.54
609.034	58.52
609.362	58.61
609.69	58.68
610.019	58.75
610.347	58.71
610.675	58.79
611.004	58.87
611.332	59.09
611.66	58.98
611.988	58.73
612.316	58.61
612.644	58.55
612.972	58.41
613.3	58.22
613.627	58.19
613.955	58.39
614.283	58.53
614.611	58.64
614.938	58.65
615.266	58.88
615.593	59.09
615.921	58.92
616.248	59.15
616.576	59.21
616.903	59.27
617.23	59.2
617.558	59.51
617.885	59.74
618.212	59.49
618.539	59.39
618.866	59.44
619.193	59.02
619.52	58.8
619.847	58.86
620.174	59.05
620.501	59.04
620.828	58.99
621.155	59.29
621.481	59.41
621.808	59.44
622.135	59.22
622.461	59.58
622.788	59.65
623.114	59.25
623.441	59.22
623.767	59.19
624.093	59.48
624.42	59.44
624.746	59.83
625.072	60.21
625.398	60.57
625.725	60.48
626.051	60.05
626.377	60.78
626.703	60.8
627.029	60.46
627.354	60.83
627.68	60.68
628.006	60.63
628.332	60.56
628.658	60.77
628.983	61.04
629.309	61.08
629.634	61.21
629.96	61.2
630.285	61.72
630.611	61.49
630.936	61.14
631.262	61.36
631.587	61.27
631.912	60.96
632.237	60.76
632.562	61.26
632.887	60.72
633.213	60.32
633.538	60.23
633.863	60.05
634.187	60.86
634.512	60.32
634.837	61.17
635.162	61.47
635.487	61.38
635.811	61.59
636.136	62.19
636.461	62.44
636.785	61.74
637.11	61.78
637.434	61.59
637.758	61.71
638.083	61.84
638.407	62.05
638.731	62.25
639.056	62.58
639.38	62.75
639.704	63.01
640.028	63.39
640.352	63.63
640.676	63.65
641	63.74
641.324	63.81
641.648	63.72
641.972	63.4
642.295	63.22
642.619	63.73
642.943	63.14
643.266	62.76
643.59	62.67
643.913	63.08
644.237	62.39
644.56	62.23
644.884	62.89
645.207	62.82
645.53	62.99
645.854	63.67
646.177	63.87
646.5	63.63
646.823	63.37
647.146	63.07
647.469	63.43
647.792	63.5
648.115	63.24
648.438	63.87
648.761	64.71
649.084	64.1
649.406	63.1
649.729	61.78
650.052	61.48
650.374	61.19
650.697	60.96
651.019	60.93
651.342	61.06
651.664	61.03
651.987	60.96
652.309	61.06
652.631	61.24
652.953	60.92
653.276	60.72
653.598	60.8
653.92	60.61
654.242	60.59
654.564	60.65
654.886	60.73
655.208	60.84
655.53	60.83
655.851	60.97
656.173	60.96
656.495	60.75
656.816	60.05
657.138	59.78
657.46	59.45
657.781	61.02
658.103	61.81
658.424	62.72
658.746	63.41
659.067	63.25
659.388	63.26
659.709	63.29
