Data from T1_Reflection__76__17-51-16-623.txt Node

Date: Wed Jun 02 17:51:16 CEST 2021
User: mabdelazizm
Spectrometer: FLMS18565
Trigger mode: 0
Integration Time (sec): 2.000000E0
Scans to average: 1
Electric dark correction enabled: true
Nonlinearity correction enabled: false
Boxcar width: 12
XAxis mode: Wavelengths
Number of Pixels in Spectrum: 2048
>>>>>Begin Spectral Data<<<<<
179.071	-213.75
179.452	-595.04
179.833	-4024.24
180.214	-233.33
180.595	1842.42
180.977	-63.88
181.358	-429.27
181.739	-234.67
182.12	-85.66
182.501	-37.21
182.882	9.04
183.262	6.13
183.643	-6.08
184.024	79.5
184.405	40.1
184.786	25.22
185.166	18.59
185.547	7.04
185.927	-1.36
186.308	5.14
186.689	-0.3
187.069	4.99
187.449	5.93
187.83	9.81
188.21	4.77
188.59	2.62
188.971	5.51
189.351	5.63
189.731	8.9
190.111	8.59
190.491	10.16
190.871	7.88
191.251	9.49
191.631	10.39
192.011	9.36
192.391	10.36
192.771	12.5
193.151	12.41
193.531	9.75
193.91	9.06
194.29	8.72
194.67	6.51
195.049	9.21
195.429	10.77
195.808	8.81
196.188	9.83
196.567	9.84
196.946	9.27
197.326	9.17
197.705	8.97
198.084	9.57
198.464	9.67
198.843	8.95
199.222	10.07
199.601	10.23
199.98	9.1
200.359	9.82
200.738	9.96
201.117	9.86
201.496	10.51
201.875	10.45
202.254	9.07
202.632	8.95
203.011	8.57
203.39	8.45
203.768	8.41
204.147	9.66
204.525	8.97
204.904	8.72
205.282	9
205.661	8.12
206.039	9.13
206.418	7.84
206.796	7.71
207.174	8.29
207.552	9.32
207.931	8.18
208.309	8.89
208.687	7.85
209.065	8.26
209.443	8.58
209.821	7.98
210.199	7.25
210.577	6.17
210.954	5.54
211.332	5.03
211.71	5.35
212.088	5.75
212.465	5.06
212.843	5.08
213.221	5.84
213.598	5.35
213.976	5.28
214.353	5.07
214.731	4.27
215.108	4.27
215.485	2.99
215.863	2.99
216.24	3.07
216.617	3.55
216.994	2.55
217.371	3.51
217.749	2.97
218.126	2.86
218.503	2.86
218.88	2.64
219.256	2.56
219.633	2.62
220.01	3.79
220.387	4.73
220.764	5
221.14	4.93
221.517	4.49
221.894	4.77
222.27	4.87
222.647	4.56
223.023	4.43
223.4	4.16
223.776	4.16
224.153	4.65
224.529	4.58
224.905	4.74
225.282	4.66
225.658	4.55
226.034	4.06
226.41	4.12
226.786	3.69
227.162	3.45
227.538	3.36
227.914	3.17
228.29	3.15
228.666	3.11
229.042	3.09
229.418	2.44
229.793	2.26
230.169	1.96
230.545	1.75
230.92	1.7
231.296	1.73
231.672	1.74
232.047	1.62
232.422	1.7
232.798	1.68
233.173	1.58
233.549	1.46
233.924	1.26
234.299	1.15
234.674	1.21
235.05	0.87
235.425	0.87
235.8	0.96
236.175	0.91
236.55	1.02
236.925	0.98
237.3	0.97
237.675	0.92
238.049	0.99
238.424	0.99
238.799	1.09
239.174	1.03
239.548	1.12
239.923	1.1
240.297	1.13
240.672	1.13
241.046	1.13
241.421	1.08
241.795	0.89
242.17	0.88
242.544	0.9
242.918	0.76
243.293	0.83
243.667	0.75
244.041	0.75
244.415	0.91
244.789	1.1
245.163	0.99
245.537	1
245.911	0.96
246.285	1.02
246.659	1.07
247.033	1.15
247.406	1.02
247.78	0.96
248.154	0.97
248.528	1.05
248.901	0.97
249.275	1.04
249.648	1
250.022	0.94
250.395	0.96
250.769	1.02
251.142	1.18
251.515	1.24
251.888	1.25
252.262	1.36
252.635	1.39
253.008	1.48
253.381	1.44
253.754	1.53
254.127	1.35
254.5	1.39
254.873	1.4
255.246	1.46
255.619	1.41
255.992	1.34
256.364	1.28
256.737	1.34
257.11	1.36
257.483	1.41
257.855	1.29
258.228	1.38
258.6	1.33
258.973	1.42
259.345	1.45
259.718	1.36
260.09	1.3
260.462	1.23
260.834	1.19
261.207	1.19
261.579	1.18
261.951	1.09
262.323	1.07
262.695	1.06
263.067	0.89
263.439	0.94
263.811	0.9
264.183	0.85
264.555	0.86
264.927	0.85
265.298	0.86
265.67	0.86
266.042	0.81
266.413	0.75
266.785	0.74
267.156	0.77
267.528	0.71
267.899	0.72
268.271	0.65
268.642	0.64
269.013	0.75
269.385	0.79
269.756	0.82
270.127	0.75
270.498	0.83
270.87	0.85
271.241	0.92
271.612	0.93
271.983	1.04
272.354	1.09
272.724	1.07
273.095	1.18
273.466	1.35
273.837	1.38
274.208	1.41
274.578	1.42
274.949	1.44
275.32	1.47
275.69	1.57
276.061	1.59
276.431	1.64
276.802	1.68
277.172	1.72
277.542	1.67
277.913	1.72
278.283	1.64
278.653	1.58
279.023	1.54
279.394	1.66
279.764	1.62
280.134	1.6
280.504	1.58
280.874	1.52
281.244	1.41
281.614	1.37
281.983	1.33
282.353	1.31
282.723	1.21
283.093	1.16
283.462	1.07
283.832	1.06
284.202	1.09
284.571	1.1
284.941	1.09
285.31	1.05
285.68	1.01
286.049	0.94
286.418	0.9
286.788	1.03
287.157	0.95
287.526	0.84
287.895	0.87
288.264	0.91
288.633	0.9
289.002	0.8
289.371	0.76
289.74	0.74
290.109	0.73
290.478	0.64
290.847	0.71
291.216	0.71
291.585	0.6
291.953	0.55
292.322	0.49
292.691	0.5
293.059	0.51
293.428	0.51
293.796	0.47
294.165	0.42
294.533	0.46
294.901	0.45
295.27	0.5
295.638	0.5
296.006	0.35
296.374	0.44
296.743	0.52
297.111	0.52
297.479	0.52
297.847	0.5
298.215	0.53
298.583	0.5
298.95	0.45
299.318	0.45
299.686	0.55
300.054	0.54
300.422	0.55
300.789	0.55
301.157	0.52
301.525	0.48
301.892	0.52
302.26	0.5
302.627	0.41
302.994	0.39
303.362	0.38
303.729	0.36
304.097	0.36
304.464	0.34
304.831	0.36
305.198	0.36
305.565	0.28
305.932	0.32
306.299	0.37
306.666	0.35
307.033	0.35
307.4	0.42
307.767	0.48
308.134	0.57
308.501	0.61
308.867	0.61
309.234	0.56
309.601	0.59
309.967	0.59
310.334	0.69
310.701	0.75
311.067	0.77
311.433	0.75
311.8	0.84
312.166	0.84
312.533	0.87
312.899	0.8
313.265	0.82
313.631	0.85
313.997	0.81
314.363	0.84
314.729	0.82
315.096	0.78
315.461	0.79
315.827	0.71
316.193	0.76
316.559	0.73
316.925	0.75
317.291	0.7
317.656	0.69
318.022	0.64
318.388	0.7
318.753	0.68
319.119	0.72
319.484	0.77
319.85	0.8
320.215	0.9
320.581	0.92
320.946	0.84
321.311	0.87
321.676	0.83
322.042	0.92
322.407	0.87
322.772	0.84
323.137	0.86
323.502	0.91
323.867	0.84
324.232	0.83
324.597	0.74
324.962	0.75
325.327	0.69
325.691	0.61
326.056	0.55
326.421	0.6
326.785	0.6
327.15	0.66
327.514	0.65
327.879	0.7
328.243	0.67
328.608	0.52
328.972	0.5
329.337	0.37
329.701	0.34
330.065	0.46
330.429	0.38
330.794	0.41
331.158	0.33
331.522	0.29
331.886	0.32
332.25	0.32
332.614	0.22
332.978	0.36
333.342	0.36
333.705	0.44
334.069	0.53
334.433	0.54
334.797	0.56
335.16	0.6
335.524	0.5
335.887	0.52
336.251	0.49
336.614	0.45
336.978	0.36
337.341	0.3
337.705	0.41
338.068	0.48
338.431	0.49
338.794	0.49
339.158	0.35
339.521	0.4
339.884	0.38
340.247	0.45
340.61	0.47
340.973	0.46
341.336	0.42
341.699	0.42
342.062	0.31
342.424	0.29
342.787	0.25
343.15	0.13
343.512	0.01
343.875	0.07
344.238	0.08
344.6	0.17
344.963	0.1
345.325	0.15
345.688	0.12
346.05	0.1
346.412	0.16
346.775	0.12
347.137	0.03
347.499	0.09
347.861	0.11
348.223	0.16
348.585	0.21
348.947	0.19
349.309	0.13
349.671	0.19
350.033	0.25
350.395	0.34
350.757	0.43
351.118	0.51
351.48	0.51
351.842	0.49
352.203	0.55
352.565	0.64
352.927	0.58
353.288	0.55
353.65	0.54
354.011	0.65
354.372	0.58
354.734	0.6
355.095	0.71
355.456	0.7
355.817	0.72
356.179	0.69
356.54	0.64
356.901	0.68
357.262	0.67
357.623	0.65
357.984	0.68
358.345	0.71
358.705	0.67
359.066	0.52
359.427	0.43
359.788	0.38
360.148	0.41
360.509	0.44
360.87	0.46
361.23	0.54
361.591	0.62
361.951	0.62
362.312	0.59
362.672	0.5
363.032	0.44
363.393	0.47
363.753	0.53
364.113	0.54
364.473	0.57
364.833	0.54
365.193	0.5
365.553	0.47
365.913	0.44
366.273	0.51
366.633	0.5
366.993	0.4
367.353	0.38
367.713	0.39
368.072	0.42
368.432	0.51
368.792	0.45
369.151	0.42
369.511	0.4
369.87	0.43
370.23	0.32
370.589	0.26
370.949	0.2
371.308	0.29
371.667	0.38
372.027	0.33
372.386	0.35
372.745	0.31
373.104	0.25
373.463	0.24
373.822	0.15
374.181	0.18
374.54	0.25
374.899	0.21
375.258	0.14
375.617	0.15
375.975	0.18
376.334	0.14
376.693	0.07
377.052	0.1
377.41	0.05
377.769	0.06
378.127	0
378.486	0.07
378.844	0.1
379.202	0.11
379.561	0.01
379.919	0.1
380.277	0.03
380.636	0.02
380.994	0.07
381.352	0.02
381.71	0.05
382.068	0.04
382.426	-0.02
382.784	0.1
383.142	0.11
383.5	0.07
383.857	0.11
384.215	0.09
384.573	0.07
384.931	0.14
385.288	0.1
385.646	0.1
386.003	0.07
386.361	0.14
386.718	0.22
387.076	0.31
387.433	0.16
387.791	0.15
388.148	0.09
388.505	0.11
388.862	0.08
389.22	0.16
389.577	0.15
389.934	0.18
390.291	0.29
390.648	0.28
391.005	0.33
391.362	0.47
391.718	0.42
392.075	0.43
392.432	0.43
392.789	0.36
393.145	0.38
393.502	0.35
393.859	0.4
394.215	0.36
394.572	0.37
394.928	0.38
395.285	0.25
395.641	0.29
395.997	0.24
396.354	0.32
396.71	0.38
397.066	0.46
397.422	0.55
397.778	0.54
398.134	0.43
398.491	0.48
398.846	0.41
399.202	0.37
399.558	0.39
399.914	0.41
400.27	0.31
400.626	0.3
400.981	0.29
401.337	0.32
401.693	0.5
402.048	0.5
402.404	0.51
402.759	0.45
403.115	0.64
403.47	0.72
403.826	0.74
404.181	0.81
404.536	0.77
404.892	0.84
405.247	0.81
405.602	0.78
405.957	0.75
406.312	0.74
406.667	0.7
407.022	0.76
407.377	0.8
407.732	0.91
408.087	0.88
408.442	0.88
408.796	0.77
409.151	0.78
409.506	0.8
409.86	0.78
410.215	0.72
410.57	0.62
410.924	0.61
411.279	0.56
411.633	0.61
411.987	0.55
412.342	0.49
412.696	0.52
413.05	0.63
413.404	0.58
413.758	0.75
414.113	0.8
414.467	0.85
414.821	0.82
415.175	0.84
415.529	0.93
415.882	0.84
416.236	0.75
416.59	0.69
416.944	0.75
417.298	0.85
417.651	0.87
418.005	0.93
418.358	1.01
418.712	1.15
419.065	1.17
419.419	1.21
419.772	1.31
420.126	1.43
420.479	1.53
420.832	1.63
421.185	1.68
421.539	1.63
421.892	1.53
422.245	1.69
422.598	1.46
422.951	1.52
423.304	1.56
423.657	1.64
424.01	1.66
424.363	1.78
424.715	1.84
425.068	1.92
425.421	1.88
425.773	1.84
426.126	1.75
426.479	1.84
426.831	1.86
427.184	1.84
427.536	1.8
427.889	1.79
428.241	1.72
428.593	1.74
428.945	1.79
429.298	1.66
429.65	1.57
430.002	1.7
430.354	1.75
430.706	1.75
431.058	1.72
431.41	1.86
431.762	1.89
432.114	1.69
432.466	1.61
432.817	1.6
433.169	1.51
433.521	1.63
433.872	1.69
434.224	1.73
434.576	1.82
434.927	1.79
435.279	1.83
435.63	1.74
435.981	1.72
436.333	1.62
436.684	1.61
437.035	1.56
437.387	1.48
437.738	1.38
438.089	1.4
438.44	1.38
438.791	1.16
439.142	1.21
439.493	1.16
439.844	1.12
440.195	1.05
440.545	0.95
440.896	1.11
441.247	1.23
441.598	1.21
441.948	1.16
442.299	1
442.649	0.86
443	0.82
443.35	0.78
443.701	0.83
444.051	0.83
444.401	0.91
444.752	0.79
445.102	0.91
445.452	0.94
445.802	0.99
446.152	1.03
446.502	1.1
446.852	1.11
447.202	1.16
447.552	1.38
447.902	1.38
448.252	1.4
448.602	3.06
448.952	3.04
449.301	3.09
449.651	3.1
450.001	3.06
450.35	3.19
450.7	3.17
451.049	3.18
451.399	3.32
451.748	3.44
452.097	3.55
452.447	3.5
452.796	3.42
453.145	3.41
453.494	3.57
453.843	3.58
454.193	3.63
454.542	3.71
454.891	3.7
455.239	3.72
455.588	3.73
455.937	3.72
456.286	3.72
456.635	3.66
456.984	3.65
457.332	1.78
457.681	1.74
458.03	1.74
458.378	1.71
458.727	1.87
459.075	1.83
459.423	2.09
459.772	2.23
460.12	2.26
460.468	2.34
460.817	2.33
461.165	2.45
461.513	2.41
461.861	2.52
462.209	2.66
462.557	2.56
462.905	2.53
463.253	2.45
463.601	2.55
463.949	2.57
464.297	2.61
464.644	2.66
464.992	2.63
465.34	2.7
465.687	2.83
466.035	2.9
466.383	3.02
466.73	3.13
467.078	3.02
467.425	2.9
467.772	2.98
468.12	2.89
468.467	2.82
468.814	2.84
469.161	2.71
469.508	2.46
469.856	2.34
470.203	2.38
470.55	2.31
470.897	2.36
471.243	2.44
471.59	2.4
471.937	2.47
472.284	2.53
472.631	2.41
472.977	2.43
473.324	2.46
473.671	2.41
474.017	2.39
474.364	2.39
474.71	2.27
475.057	2.29
475.403	2.14
475.749	2.26
476.096	2.24
476.442	2.14
476.788	2.14
477.134	2.13
477.48	2.08
477.826	2.09
478.172	2.24
478.518	2.21
478.864	2.23
479.21	2.2
479.556	2.05
479.902	2.06
480.248	2.12
480.593	2.22
480.939	2.16
481.285	2.23
481.63	2.22
481.976	2.23
482.321	2.27
482.667	2.39
483.012	2.37
483.357	2.46
483.703	2.42
484.048	2.6
484.393	2.69
484.738	2.82
485.084	2.9
485.429	3.02
485.774	3.26
486.119	3.36
486.464	3.62
486.808	3.78
487.153	4.02
487.498	4.28
487.843	4.53
488.188	4.83
488.532	5.07
488.877	5.37
489.222	5.61
489.566	5.95
489.911	6.23
490.255	6.67
490.6	7.11
490.944	7.51
491.288	7.85
491.633	8.31
491.977	8.82
492.321	9.34
492.665	9.74
493.009	10.16
493.353	10.57
493.697	11.08
494.041	11.63
494.385	12.18
494.729	12.79
495.073	13.33
495.417	13.95
495.76	14.53
496.104	15.15
496.448	15.7
496.791	16.37
497.135	17.01
497.479	17.7
497.822	18.49
498.165	19.21
498.509	20.06
498.852	20.81
499.196	21.46
499.539	22.26
499.882	23.04
500.225	23.91
500.568	24.55
500.911	25.28
501.254	26
501.597	26.73
501.94	27.51
502.283	28.22
502.626	28.86
502.969	29.49
503.312	30.16
503.654	30.81
503.997	31.41
504.34	32.15
504.682	32.86
505.025	33.64
505.367	34.28
505.71	34.88
506.052	35.59
506.395	36.03
506.737	36.56
507.079	37.18
507.421	37.75
507.764	38.4
508.106	38.85
508.448	39.47
508.79	39.79
509.132	40.26
509.474	40.75
509.816	41.24
510.158	41.73
510.499	42.23
510.841	42.83
511.183	43.28
511.525	43.76
511.866	44.2
512.208	44.74
512.549	45.28
512.891	45.55
513.232	45.82
513.574	46.21
513.915	46.5
514.256	47.07
514.598	47.32
514.939	47.77
515.28	48.13
515.621	48.47
515.962	48.67
516.303	48.99
516.644	49.33
516.985	49.55
517.326	49.98
517.667	50.23
518.008	50.37
518.349	50.6
518.69	50.97
519.03	51.04
519.371	51.12
519.712	51.47
520.052	51.64
520.393	51.81
520.733	52.02
521.074	52.14
521.414	52.6
521.754	52.95
522.095	53.08
522.435	53.25
522.775	53.4
523.115	53.71
523.455	53.92
523.795	54.02
524.135	53.98
524.475	54.3
524.815	54.41
525.155	54.61
525.495	54.61
525.835	54.7
526.175	54.88
526.514	55.25
526.854	55.51
527.194	55.64
527.533	56.09
527.873	56.48
528.212	56.55
528.552	56.79
528.891	57.01
529.23	57.09
529.57	57.11
529.909	57.03
530.248	57.05
530.587	57.19
530.927	57.49
531.266	57.5
531.605	57.5
531.944	57.61
532.283	57.76
532.621	58.11
532.96	58.31
533.299	58.38
533.638	58.62
533.977	58.89
534.315	58.86
534.654	59.05
534.992	59.09
535.331	59.05
535.67	59.04
536.008	59.1
536.346	59.07
536.685	59.13
537.023	58.93
537.361	59.01
537.7	59.1
538.038	59.31
538.376	59.42
538.714	59.58
539.052	59.62
539.39	59.7
539.728	59.89
540.066	60.12
540.404	60.2
540.741	60.4
541.079	60.42
541.417	60.43
541.755	60.51
542.092	60.37
542.43	60.32
542.767	60.43
543.105	60.41
543.442	60.32
543.78	60.39
544.117	60.58
544.454	60.32
544.792	60.3
545.129	60.3
545.466	60.61
545.803	60.63
546.14	60.43
546.477	60.55
546.814	60.57
547.151	60.63
547.488	60.75
547.825	60.78
548.162	60.67
548.499	60.65
548.835	60.57
549.172	60.53
549.509	60.54
549.845	60.48
550.182	60.47
550.518	60.53
550.855	60.67
551.191	60.7
551.528	60.7
551.864	60.86
552.2	60.85
552.537	60.74
552.873	61.02
553.209	61
553.545	61.06
553.881	60.97
554.217	61.04
554.553	61.45
554.889	61.56
555.225	61.57
555.561	61.38
555.896	61.27
556.232	61.22
556.568	61.25
556.903	61.26
557.239	61.29
557.575	61.28
557.91	61.27
558.245	61.36
558.581	61.5
558.916	61.61
559.252	61.66
559.587	61.68
559.922	61.87
560.257	62.09
560.592	62.19
560.928	62.33
561.263	62.3
561.598	62.46
561.933	62.6
562.267	62.81
562.602	62.85
562.937	62.69
563.272	62.63
563.607	63.01
563.941	63.11
564.276	63.31
564.611	63.56
564.945	63.68
565.28	63.67
565.614	63.59
565.949	63.65
566.283	63.76
566.617	63.71
566.951	63.7
567.286	63.87
567.62	63.83
567.954	64.19
568.288	64.11
568.622	64.01
568.956	64.01
569.29	64.03
569.624	64.16
569.958	64.13
570.292	64.02
570.626	63.99
570.959	64.07
571.293	64.31
571.627	64.33
571.96	64.22
572.294	64.22
572.627	64.17
572.961	64.09
573.294	64.05
573.627	64.11
573.961	64.31
574.294	64.46
574.627	64.46
574.961	64.66
575.294	64.63
575.627	64.5
575.96	64.52
576.293	64.29
576.626	64.33
576.959	64.28
577.292	64.35
577.624	64.24
577.957	64.33
578.29	64.52
578.623	64.6
578.955	64.54
579.288	64.53
579.62	64.32
579.953	64.41
580.285	64.45
580.618	64.52
580.95	64.68
581.282	64.85
581.615	64.91
581.947	64.95
582.279	64.82
582.611	64.84
582.943	64.86
583.275	64.76
583.607	64.81
583.939	64.83
584.271	64.73
584.603	64.86
584.935	64.98
585.267	65.04
585.598	64.99
585.93	65.28
586.262	65.18
586.593	65.02
586.925	64.94
587.256	65.05
587.588	64.98
587.919	65
588.25	64.86
588.582	64.8
588.913	64.96
589.244	64.8
589.575	64.9
589.907	64.98
590.238	64.92
590.569	65.1
590.9	65.03
591.231	65.02
591.562	65.06
591.892	65.09
592.223	65.24
592.554	65.46
592.885	65.39
593.215	65.32
593.546	65.39
593.877	65.26
594.207	65.03
594.538	64.94
594.868	64.95
595.198	65.19
595.529	65.14
595.859	65.09
596.189	65.43
596.52	65.47
596.85	65.61
597.18	65.61
597.51	65.55
597.84	65.15
598.17	65.1
598.5	65.22
598.83	65.11
599.16	65.22
599.489	65.21
599.819	65.23
600.149	65.24
600.479	65.05
600.808	64.92
601.138	64.85
601.467	64.86
601.797	64.93
602.126	65.12
602.456	65.27
602.785	65.45
603.114	65.4
603.443	65.26
603.773	65.36
604.102	65.5
604.431	65.28
604.76	65.36
605.089	65.27
605.418	65.15
605.747	65.09
606.076	65.26
606.405	65.19
606.733	65.29
607.062	65.38
607.391	65.2
607.72	65.08
608.048	65.03
608.377	65.16
608.705	65.25
609.034	65.23
609.362	65.34
609.69	65.23
610.019	65.1
610.347	65.07
610.675	64.99
611.004	64.99
611.332	65.14
611.66	65.09
611.988	65.01
612.316	65.01
612.644	64.89
612.972	64.86
613.3	64.87
613.627	64.78
613.955	64.86
614.283	64.61
614.611	64.74
614.938	64.64
615.266	64.9
615.593	64.99
615.921	65.03
616.248	65.03
616.576	64.71
616.903	64.69
617.23	64.93
617.558	65.24
617.885	65.39
618.212	65.59
618.539	65.38
618.866	65.77
619.193	65.62
619.52	65.42
619.847	65.62
620.174	65.67
620.501	65.85
620.828	65.7
621.155	65.61
621.481	65.31
621.808	65.47
622.135	66
622.461	66.7
622.788	67.05
623.114	66.85
623.441	66.3
623.767	66.39
624.093	66.69
624.42	66.8
624.746	67.24
625.072	67.64
625.398	67.7
625.725	67.63
626.051	67.61
626.377	67.56
626.703	67.65
627.029	67.44
627.354	67.8
627.68	68.14
628.006	68.14
628.332	67.29
628.658	67.19
628.983	67.96
629.309	68.56
629.634	68.98
629.96	68.87
630.285	68.7
630.611	68.42
630.936	68.11
631.262	68.28
631.587	69.11
631.912	68.78
632.237	68.66
632.562	68.61
632.887	68.28
633.213	68.65
633.538	68.53
633.863	68.25
634.187	68.6
634.512	68.56
634.837	68.75
635.162	68.71
635.487	68.55
635.811	68.08
636.136	68.49
636.461	69.5
636.785	69.28
637.11	69.18
637.434	68.82
637.758	68.62
638.083	68.81
638.407	68.91
638.731	68.98
639.056	68.64
639.38	68.56
639.704	67.92
640.028	68.33
640.352	68.72
640.676	68.42
641	68.35
641.324	68.1
641.648	68.33
641.972	68.62
642.295	68.45
642.619	68.52
642.943	68.42
643.266	68.03
643.59	67.7
643.913	68.17
644.237	67.64
644.56	67.6
644.884	67.4
645.207	67.6
645.53	68.06
645.854	68.25
646.177	67.93
646.5	68.02
646.823	67.85
647.146	68.49
647.469	68.88
647.792	68.69
648.115	68.51
648.438	68.56
648.761	69.93
649.084	69.83
649.406	68.46
649.729	66.84
650.052	66.34
650.374	66.12
650.697	65.95
651.019	66.06
651.342	66.11
651.664	66.23
651.987	66.19
652.309	66.26
652.631	66.49
652.953	66.29
653.276	66.04
653.598	65.91
653.92	66.09
654.242	66.36
654.564	66.33
654.886	66.14
655.208	65.8
655.53	65.79
655.851	66.05
656.173	65.95
656.495	65.84
656.816	65.15
657.138	64.55
657.46	64.48
657.781	66.62
658.103	67.61
658.424	68.64
658.746	69.62
659.067	69.64
659.388	69.25
659.709	68.58
660.031	68.55
660.352	68.16
660.673	67.56
660.994	68.79
661.315	69.54
661.636	69.26
661.957	68.22
662.278	66.75
662.599	66.39
662.919	66.9
663.24	67.96
663.561	67.39
663.881	66.37
664.202	67.47
664.523	67.74
664.843	67.47
