Data from T1_Reflection__78__17-53-12-619.txt Node

Date: Wed Jun 02 17:53:12 CEST 2021
User: mabdelazizm
Spectrometer: FLMS18565
Trigger mode: 0
Integration Time (sec): 2.000000E0
Scans to average: 1
Electric dark correction enabled: true
Nonlinearity correction enabled: false
Boxcar width: 12
XAxis mode: Wavelengths
Number of Pixels in Spectrum: 2048
>>>>>Begin Spectral Data<<<<<
179.071	-37.22
179.452	-248.76
179.833	-1130.3
180.214	-28.57
180.595	-257.58
180.977	117.49
181.358	225.85
181.739	129.33
182.12	111.85
182.501	84.72
182.882	48.4
183.262	37.42
183.643	157.03
184.024	46.58
184.405	34.63
184.786	38.45
185.166	31.81
185.547	34.14
185.927	23.55
186.308	28.24
186.689	25.57
187.069	23
187.449	20.9
187.83	19.84
188.21	16.21
188.59	12.44
188.971	9.21
189.351	8.87
189.731	10.91
190.111	13.08
190.491	14.62
190.871	12.63
191.251	12.99
191.631	13.39
192.011	10.95
192.391	12.35
192.771	14.4
193.151	14.04
193.531	11.25
193.91	10.99
194.29	9.31
194.67	9.07
195.049	10.14
195.429	10.29
195.808	9.26
196.188	9.08
196.567	9.14
196.946	9.68
197.326	9.39
197.705	9.22
198.084	10.74
198.464	10.82
198.843	11.74
199.222	12.15
199.601	12.28
199.98	12.64
200.359	12.82
200.738	12.98
201.117	12.75
201.496	13.98
201.875	13.71
202.254	11.71
202.632	11.76
203.011	11.88
203.39	11.64
203.768	10.54
204.147	10.87
204.525	10.2
204.904	10.43
205.282	10.57
205.661	10.09
206.039	11.3
206.418	10.05
206.796	10.2
207.174	10.88
207.552	10.84
207.931	10.42
208.309	9.64
208.687	9.57
209.065	9.49
209.443	8.6
209.821	8.72
210.199	8.2
210.577	8.26
210.954	7.34
211.332	6.32
211.71	6.99
212.088	7.54
212.465	7.1
212.843	6.54
213.221	7.86
213.598	7.23
213.976	6.7
214.353	5.87
214.731	5.33
215.108	6.07
215.485	5.36
215.863	5.48
216.24	5.29
216.617	5.57
216.994	5.23
217.371	5.58
217.749	5.74
218.126	4.97
218.503	4.87
218.88	4.93
219.256	5.17
219.633	5.24
220.01	5.19
220.387	5.79
220.764	6.29
221.14	5.81
221.517	5.31
221.894	5.24
222.27	5.6
222.647	5.68
223.023	5.52
223.4	5.39
223.776	5.68
224.153	5.84
224.529	5.74
224.905	5.9
225.282	5.91
225.658	5.89
226.034	5.39
226.41	5.48
226.786	5.35
227.162	5.4
227.538	5.33
227.914	5.09
228.29	5.17
228.666	4.77
229.042	4.77
229.418	4.37
229.793	4.36
230.169	4.18
230.545	4
230.92	3.98
231.296	3.9
231.672	3.92
232.047	3.6
232.422	3.6
232.798	3.56
233.173	3.39
233.549	3.32
233.924	3
234.299	2.83
234.674	2.83
235.05	2.75
235.425	2.81
235.8	2.69
236.175	2.66
236.55	2.55
236.925	2.57
237.3	2.58
237.675	2.55
238.049	2.76
238.424	2.69
238.799	2.76
239.174	2.66
239.548	2.65
239.923	2.68
240.297	2.68
240.672	2.75
241.046	2.7
241.421	2.72
241.795	2.58
242.17	2.64
242.544	2.65
242.918	2.46
243.293	2.43
243.667	2.41
244.041	2.44
244.415	2.44
244.789	2.51
245.163	2.52
245.537	2.51
245.911	2.54
246.285	2.53
246.659	2.47
247.033	2.5
247.406	2.39
247.78	2.41
248.154	2.45
248.528	2.48
248.901	2.43
249.275	2.48
249.648	2.5
250.022	2.45
250.395	2.48
250.769	2.49
251.142	2.59
251.515	2.57
251.888	2.66
252.262	2.81
252.635	2.91
253.008	2.9
253.381	2.81
253.754	2.87
254.127	2.76
254.5	2.73
254.873	2.76
255.246	2.77
255.619	2.82
255.992	2.8
256.364	2.73
256.737	2.74
257.11	2.73
257.483	2.73
257.855	2.63
258.228	2.68
258.6	2.69
258.973	2.7
259.345	2.72
259.718	2.65
260.09	2.61
260.462	2.57
260.834	2.58
261.207	2.54
261.579	2.53
261.951	2.47
262.323	2.47
262.695	2.53
263.067	2.4
263.439	2.45
263.811	2.46
264.183	2.43
264.555	2.42
264.927	2.34
265.298	2.44
265.67	2.42
266.042	2.35
266.413	2.26
266.785	2.25
267.156	2.27
267.528	2.23
267.899	2.18
268.271	2.08
268.642	2.08
269.013	2.15
269.385	2.11
269.756	2.08
270.127	2.03
270.498	2.02
270.87	2.02
271.241	2.04
271.612	2.05
271.983	2.08
272.354	2.14
272.724	2.16
273.095	2.25
273.466	2.3
273.837	2.29
274.208	2.29
274.578	2.19
274.949	2.2
275.32	2.22
275.69	2.24
276.061	2.24
276.431	2.27
276.802	2.25
277.172	2.28
277.542	2.28
277.913	2.28
278.283	2.23
278.653	2.29
279.023	2.34
279.394	2.38
279.764	2.36
280.134	2.3
280.504	2.32
280.874	2.19
281.244	2.07
281.614	2.04
281.983	1.93
282.353	1.91
282.723	1.86
283.093	1.87
283.462	1.84
283.832	1.84
284.202	1.88
284.571	1.87
284.941	1.89
285.31	1.88
285.68	1.9
286.049	1.84
286.418	1.81
286.788	1.96
287.157	1.95
287.526	1.91
287.895	1.84
288.264	1.83
288.633	1.79
289.002	1.75
289.371	1.72
289.74	1.64
290.109	1.71
290.478	1.74
290.847	1.74
291.216	1.74
291.585	1.56
291.953	1.53
292.322	1.47
292.691	1.47
293.059	1.46
293.428	1.43
293.796	1.43
294.165	1.43
294.533	1.42
294.901	1.39
295.27	1.48
295.638	1.46
296.006	1.36
296.374	1.36
296.743	1.39
297.111	1.38
297.479	1.39
297.847	1.35
298.215	1.37
298.583	1.39
298.95	1.34
299.318	1.35
299.686	1.35
300.054	1.38
300.422	1.37
300.789	1.51
301.157	1.51
301.525	1.49
301.892	1.49
302.26	1.44
302.627	1.4
302.994	1.38
303.362	1.35
303.729	1.32
304.097	1.33
304.464	1.29
304.831	1.32
305.198	1.26
305.565	1.24
305.932	1.21
306.299	1.24
306.666	1.21
307.033	1.26
307.4	1.31
307.767	1.28
308.134	1.32
308.501	1.35
308.867	1.34
309.234	1.27
309.601	1.33
309.967	1.26
310.334	1.24
310.701	1.28
311.067	1.32
311.433	1.39
311.8	1.42
312.166	1.42
312.533	1.43
312.899	1.39
313.265	1.34
313.631	1.34
313.997	1.26
314.363	1.21
314.729	1.16
315.096	1.1
315.461	1.06
315.827	1
316.193	1.02
316.559	0.92
316.925	1.04
317.291	1.08
317.656	1.04
318.022	1.11
318.388	1.18
318.753	1.16
319.119	1.17
319.484	1.2
319.85	1.16
320.215	1.18
320.581	1.14
320.946	1.08
321.311	1.17
321.676	1.14
322.042	1.21
322.407	1.2
322.772	1.23
323.137	1.31
323.502	1.37
323.867	1.31
324.232	1.38
324.597	1.36
324.962	1.4
325.327	1.42
325.691	1.46
326.056	1.36
326.421	1.43
326.785	1.44
327.15	1.4
327.514	1.34
327.879	1.34
328.243	1.29
328.608	1.24
328.972	1.25
329.337	1.16
329.701	1.14
330.065	1.13
330.429	1.04
330.794	1.09
331.158	1.02
331.522	1.03
331.886	1.04
332.25	1.02
332.614	0.97
332.978	1.02
333.342	0.96
333.705	1.04
334.069	1.03
334.433	0.98
334.797	0.98
335.16	0.97
335.524	0.87
335.887	0.88
336.251	0.81
336.614	0.84
336.978	0.86
337.341	0.87
337.705	0.88
338.068	0.94
338.431	0.95
338.794	0.94
339.158	0.96
339.521	0.95
339.884	0.87
340.247	0.91
340.61	0.97
340.973	0.86
341.336	0.8
341.699	0.78
342.062	0.78
342.424	0.79
342.787	0.77
343.15	0.76
343.512	0.63
343.875	0.59
344.238	0.66
344.6	0.68
344.963	0.63
345.325	0.71
345.688	0.73
346.05	0.69
346.412	0.65
346.775	0.65
347.137	0.63
347.499	0.68
347.861	0.79
348.223	0.86
348.585	0.9
348.947	0.84
349.309	0.86
349.671	0.84
350.033	0.93
350.395	1.03
350.757	1.12
351.118	1.11
351.48	1.14
351.842	1.05
352.203	1.06
352.565	1.19
352.927	1.2
353.288	1.23
353.65	1.25
354.011	1.28
354.372	1.26
354.734	1.22
355.095	1.25
355.456	1.26
355.817	1.31
356.179	1.29
356.54	1.3
356.901	1.32
357.262	1.28
357.623	1.25
357.984	1.37
358.345	1.41
358.705	1.4
359.066	1.38
359.427	1.24
359.788	1.19
360.148	1.2
360.509	1.18
360.87	1.3
361.23	1.33
361.591	1.3
361.951	1.35
362.312	1.31
362.672	1.24
363.032	1.2
363.393	1.19
363.753	1.27
364.113	1.25
364.473	1.28
364.833	1.21
365.193	1.12
365.553	1.14
365.913	1.09
366.273	1.19
366.633	1.24
366.993	1.13
367.353	1.13
367.713	1.09
368.072	1.04
368.432	1.18
368.792	1.26
369.151	1.28
369.511	1.35
369.87	1.33
370.23	1.3
370.589	1.36
370.949	1.31
371.308	1.29
371.667	1.39
372.027	1.31
372.386	1.35
372.745	1.3
373.104	1.32
373.463	1.32
373.822	1.34
374.181	1.43
374.54	1.38
374.899	1.25
375.258	1.13
375.617	1.08
375.975	1.14
376.334	1.05
376.693	1
377.052	1.05
377.41	1.02
377.769	0.96
378.127	1
378.486	0.97
378.844	0.95
379.202	0.97
379.561	0.89
379.919	0.95
380.277	0.89
380.636	0.89
380.994	1.07
381.352	1.02
381.71	1.1
382.068	1.09
382.426	1.06
382.784	1.11
383.142	1.1
383.5	1.15
383.857	1.25
384.215	1.17
384.573	1.22
384.931	1.2
385.288	1.15
385.646	1.12
386.003	1.23
386.361	1.24
386.718	1.32
387.076	1.32
387.433	1.24
387.791	1.27
388.148	1.19
388.505	1.19
388.862	1.16
389.22	1.29
389.577	1.24
389.934	1.26
390.291	1.38
390.648	1.33
391.005	1.38
391.362	1.42
391.718	1.39
392.075	1.39
392.432	1.36
392.789	1.36
393.145	1.54
393.502	1.42
393.859	1.55
394.215	1.58
394.572	1.63
394.928	1.47
395.285	1.52
395.641	1.49
395.997	1.49
396.354	1.63
396.71	1.69
397.066	1.79
397.422	1.91
397.778	2.06
398.134	1.99
398.491	2.03
398.846	1.99
399.202	1.96
399.558	1.92
399.914	1.9
400.27	1.93
400.626	1.96
400.981	1.96
401.337	1.94
401.693	2.04
402.048	2.02
402.404	2.12
402.759	2.04
403.115	2.21
403.47	2.34
403.826	2.46
404.181	2.38
404.536	2.45
404.892	2.57
405.247	2.54
405.602	2.51
405.957	2.47
406.312	2.48
406.667	2.42
407.022	2.53
407.377	2.6
407.732	2.68
408.087	2.74
408.442	2.86
408.796	2.82
409.151	2.9
409.506	2.98
409.86	3.03
410.215	3.11
410.57	3.13
410.924	3.11
411.279	3.13
411.633	3.31
411.987	3.36
412.342	3.23
412.696	3.3
413.05	3.43
413.404	3.39
413.758	3.54
414.113	3.65
414.467	3.76
414.821	3.84
415.175	3.94
415.529	3.94
415.882	3.82
416.236	3.86
416.59	3.87
416.944	3.89
417.298	3.99
417.651	4.12
418.005	4.2
418.358	4.3
418.712	4.52
419.065	4.54
419.419	4.58
419.772	4.69
420.126	4.94
420.479	4.86
420.832	4.92
421.185	5.03
421.539	4.99
421.892	5.01
422.245	5.14
422.598	5.03
422.951	5.08
423.304	5.23
423.657	5.35
424.01	5.33
424.363	5.43
424.715	5.61
425.068	5.64
425.421	5.73
425.773	5.78
426.126	5.92
426.479	5.98
426.831	6.04
427.184	6.05
427.536	5.98
427.889	6.03
428.241	6.11
428.593	6.24
428.945	6.15
429.298	6.19
429.65	6.11
430.002	6.38
430.354	6.53
430.706	6.58
431.058	6.6
431.41	6.63
431.762	6.6
432.114	6.49
432.466	6.39
432.817	6.37
433.169	6.36
433.521	6.4
433.872	6.4
434.224	6.32
434.576	6.35
434.927	6.15
435.279	6.2
435.63	6.07
435.981	6
436.333	6.01
436.684	6.05
437.035	5.93
437.387	5.73
437.738	5.71
438.089	5.67
438.44	5.67
438.791	5.35
439.142	5.24
439.493	5.09
439.844	5.08
440.195	5
440.545	4.92
440.896	4.83
441.247	4.96
441.598	5.01
441.948	4.88
442.299	4.75
442.649	4.69
443	4.67
443.35	4.63
443.701	4.59
444.051	4.53
444.401	4.62
444.752	4.59
445.102	4.59
445.452	4.55
445.802	4.55
446.152	4.65
446.502	4.64
446.852	4.66
447.202	4.67
447.552	4.92
447.902	4.95
448.252	4.95
448.602	6.51
448.952	6.57
449.301	6.62
449.651	6.63
450.001	6.54
450.35	6.61
450.7	6.6
451.049	6.54
451.399	6.64
451.748	6.72
452.097	6.81
452.447	7
452.796	6.98
453.145	6.95
453.494	7.14
453.843	7.22
454.193	7.34
454.542	7.41
454.891	7.38
455.239	7.55
455.588	7.64
455.937	7.79
456.286	7.9
456.635	8.03
456.984	8.17
457.332	6.48
457.681	6.58
458.03	6.69
458.378	6.83
458.727	7
459.075	7.02
459.423	7.4
459.772	7.55
460.12	7.7
460.468	7.88
460.817	7.94
461.165	7.84
461.513	7.87
461.861	8.15
462.209	8.22
462.557	8.3
462.905	8.18
463.253	8.21
463.601	8.33
463.949	8.23
464.297	8.24
464.644	8.23
464.992	8.16
465.34	8.09
465.687	8.08
466.035	8.01
466.383	7.93
466.73	7.86
467.078	7.82
467.425	7.7
467.772	7.69
468.12	7.47
468.467	7.5
468.814	7.47
469.161	7.23
469.508	6.98
469.856	6.86
470.203	6.8
470.55	6.53
470.897	6.45
471.243	6.29
471.59	6.28
471.937	6.26
472.284	6.28
472.631	6.18
472.977	6.02
473.324	5.98
473.671	5.9
474.017	5.85
474.364	5.81
474.71	5.76
475.057	5.84
475.403	5.85
475.749	5.85
476.096	5.84
476.442	5.81
476.788	5.79
477.134	5.78
477.48	5.67
477.826	5.72
478.172	5.9
478.518	6.04
478.864	6.12
479.21	6.27
479.556	6.2
479.902	6.24
480.248	6.29
480.593	6.4
480.939	6.41
481.285	6.51
481.63	6.66
481.976	6.78
482.321	6.88
482.667	7.09
483.012	7.32
483.357	7.45
483.703	7.59
484.048	7.89
484.393	8.19
484.738	8.56
485.084	8.82
485.429	9.09
485.774	9.48
486.119	9.8
486.464	10.24
486.808	10.61
487.153	10.96
487.498	11.5
487.843	11.89
488.188	12.5
488.532	13.03
488.877	13.61
489.222	14.23
489.566	14.93
489.911	15.79
490.255	16.57
490.6	17.36
490.944	18.13
491.288	18.93
491.633	19.65
491.977	20.6
492.321	21.47
492.665	22.32
493.009	23.13
493.353	23.95
493.697	24.82
494.041	25.91
494.385	26.84
494.729	27.91
495.073	28.91
495.417	30.06
495.76	31.18
496.104	32.18
496.448	33.21
496.791	34.39
497.135	35.47
497.479	36.63
497.822	37.76
498.165	38.9
498.509	39.94
498.852	41.07
499.196	42.15
499.539	43.3
499.882	44.29
500.225	45.42
500.568	46.31
500.911	47.27
501.254	48.21
501.597	49.29
501.94	50.14
502.283	51.09
502.626	51.9
502.969	52.77
503.312	53.58
503.654	54.33
503.997	54.97
504.34	55.74
504.682	56.57
505.025	57.42
505.367	57.96
505.71	58.6
506.052	59.33
506.395	60.01
506.737	60.59
507.079	61.47
507.421	61.98
507.764	62.56
508.106	63.13
508.448	63.79
508.79	64.23
509.132	64.7
509.474	65.29
509.816	65.72
510.158	66.1
510.499	66.55
510.841	66.96
511.183	67.36
511.525	67.73
511.866	68.08
512.208	68.6
512.549	69.17
512.891	69.49
513.232	69.77
513.574	70.03
513.915	70.46
514.256	70.92
514.598	71.21
514.939	71.52
515.28	71.82
515.621	71.79
515.962	72.21
516.303	72.57
516.644	72.79
516.985	73.03
517.326	73.46
517.667	73.79
518.008	73.8
518.349	74.12
518.69	74.44
519.03	74.62
519.371	74.88
519.712	75.09
520.052	75.3
520.393	75.59
520.733	75.87
521.074	75.86
521.414	76.26
521.754	76.33
522.095	76.6
522.435	76.82
522.775	77.12
523.115	77.38
523.455	77.44
523.795	77.58
524.135	77.63
524.475	77.72
524.815	77.91
525.155	77.9
525.495	77.88
525.835	77.92
526.175	78.08
526.514	78.33
526.854	78.52
527.194	78.56
527.533	78.84
527.873	79.05
528.212	79.16
528.552	79.45
528.891	79.48
529.23	79.42
529.57	79.4
529.909	79.23
530.248	79.35
530.587	79.37
530.927	79.33
531.266	79.44
531.605	79.37
531.944	79.51
532.283	79.49
532.621	79.69
532.96	79.84
533.299	79.99
533.638	80.37
533.977	80.66
534.315	80.78
534.654	80.92
534.992	81.11
535.331	80.91
535.67	80.89
536.008	81.23
536.346	81.28
536.685	81.25
537.023	80.94
537.361	81
537.7	81.1
538.038	81.36
538.376	81.56
538.714	81.83
539.052	81.85
539.39	81.98
539.728	81.94
540.066	82.28
540.404	82.39
540.741	82.59
541.079	82.65
541.417	82.77
541.755	82.72
542.092	82.55
542.43	82.42
542.767	82.4
543.105	82.36
543.442	82.3
543.78	82.73
544.117	82.95
544.454	82.62
544.792	82.49
545.129	82.65
545.466	83.13
545.803	83.21
546.14	83.06
546.477	83.17
546.814	83.24
547.151	83.08
547.488	83.06
547.825	83.02
548.162	83.01
548.499	82.87
548.835	82.76
549.172	82.89
549.509	82.83
549.845	82.77
550.182	82.87
550.518	82.95
550.855	83.09
551.191	83.09
551.528	83.1
551.864	83.24
552.2	82.91
552.537	82.74
552.873	82.73
553.209	82.79
553.545	82.92
553.881	82.69
554.217	82.77
554.553	83.08
554.889	82.88
555.225	82.79
555.561	82.99
555.896	83.15
556.232	83.21
556.568	83.1
556.903	83.31
557.239	83.45
557.575	83.26
557.91	83.55
558.245	83.66
558.581	83.68
558.916	83.74
559.252	83.62
559.587	83.63
559.922	83.77
560.257	83.72
560.592	83.91
560.928	84.05
561.263	84.21
561.598	84.46
561.933	84.5
562.267	84.55
562.602	84.72
562.937	84.63
563.272	84.87
563.607	85.02
563.941	85.12
564.276	85.13
564.611	85.59
564.945	85.73
565.28	85.39
565.614	85.2
565.949	85.34
566.283	85.36
566.617	85.46
566.951	85.56
567.286	85.85
567.62	86.04
567.954	86.4
568.288	86.48
568.622	86.38
568.956	86.2
569.29	86.23
569.624	86.35
569.958	86.39
570.292	86.44
570.626	86.45
570.959	86.48
571.293	86.55
571.627	86.52
571.96	86.51
572.294	86.38
572.627	86.31
572.961	85.96
573.294	85.96
573.627	86.11
573.961	86.24
574.294	86.34
574.627	86.44
574.961	86.4
575.294	86.24
575.627	86.02
575.96	85.96
576.293	85.76
576.626	85.65
576.959	85.61
577.292	85.75
577.624	85.71
577.957	85.69
578.29	85.76
578.623	85.76
578.955	85.9
579.288	85.87
579.62	85.94
579.953	86.13
580.285	86.1
580.618	86.27
580.95	86.62
581.282	86.8
581.615	86.91
581.947	86.88
582.279	86.77
582.611	86.77
582.943	86.6
583.275	86.59
583.607	86.58
583.939	86.63
584.271	86.63
584.603	86.71
584.935	86.67
585.267	86.96
585.598	87.02
585.93	87.29
586.262	87.36
586.593	87.41
586.925	87.29
587.256	87.16
587.588	87.08
587.919	86.98
588.25	86.8
588.582	86.87
588.913	86.94
589.244	86.66
589.575	86.91
589.907	86.94
590.238	86.96
590.569	87.16
590.9	87.34
591.231	87.45
591.562	87.53
591.892	87.59
592.223	87.73
592.554	87.6
592.885	87.5
593.215	87.55
593.546	87.38
593.877	87.24
594.207	87.12
594.538	87.12
594.868	86.91
595.198	87.07
595.529	87.09
595.859	87.21
596.189	87.38
596.52	87.45
596.85	87.42
597.18	87.39
597.51	87.32
597.84	86.97
598.17	86.89
598.5	86.96
598.83	86.88
599.16	86.83
599.489	86.64
599.819	86.63
600.149	86.84
600.479	86.65
600.808	86.87
601.138	86.88
601.467	86.79
601.797	86.82
602.126	86.93
602.456	86.79
602.785	86.83
603.114	86.87
603.443	86.8
603.773	86.97
604.102	86.84
604.431	86.62
604.76	86.56
605.089	86.6
605.418	86.43
605.747	86.39
606.076	86.47
606.405	86.44
606.733	86.58
607.062	86.47
607.391	86.22
607.72	86.35
608.048	86.22
608.377	85.96
608.705	85.97
609.034	85.92
609.362	85.89
609.69	86.03
610.019	85.96
610.347	85.92
610.675	86.08
611.004	86.01
611.332	86.14
611.66	86.15
611.988	85.83
612.316	85.75
612.644	85.76
612.972	85.7
613.3	85.63
613.627	85.64
613.955	85.48
614.283	85.32
614.611	85.57
614.938	85.51
615.266	85.65
615.593	85.79
615.921	85.67
616.248	85.79
616.576	85.86
616.903	86.05
617.23	86.15
617.558	86.38
617.885	86.5
618.212	86.5
618.539	86.27
618.866	86.19
619.193	86.19
619.52	86.22
619.847	85.99
620.174	86.32
620.501	86.61
620.828	86.51
621.155	86.26
621.481	86.11
621.808	86.48
622.135	87.06
622.461	87.72
622.788	88.02
623.114	87.87
623.441	87.87
623.767	88.02
624.093	88.16
624.42	88.03
624.746	88.66
625.072	88.7
625.398	88.62
625.725	88.68
626.051	88.5
626.377	89.39
626.703	89.54
627.029	89.36
627.354	89.42
627.68	88.99
628.006	89.29
628.332	88.44
628.658	88.69
628.983	89.73
629.309	90.57
629.634	91.12
629.96	90.36
630.285	90.33
630.611	89.68
630.936	88.81
631.262	88.68
631.587	89.46
631.912	89.16
632.237	89.32
632.562	89.72
632.887	89.06
633.213	89.24
633.538	89.22
633.863	89.28
634.187	89.97
634.512	89.04
634.837	88.86
635.162	89.11
635.487	88.96
635.811	89.17
636.136	89.26
636.461	90.52
636.785	90.13
637.11	89.47
637.434	89.05
637.758	88.87
638.083	89.42
638.407	89.55
638.731	90.37
639.056	91.17
639.38	91.26
639.704	91.1
640.028	91.34
640.352	91.54
640.676	92.08
641	92.26
641.324	91.87
641.648	91.56
641.972	91.8
642.295	91.12
642.619	91.71
642.943	91.7
643.266	91.32
643.59	91.29
643.913	91.56
644.237	91.1
644.56	90.75
644.884	90.87
645.207	91.13
645.53	91.48
645.854	92.47
646.177	92.26
646.5	92.27
646.823	91.21
647.146	90.64
647.469	90.78
647.792	90.74
648.115	91.06
648.438	91.5
648.761	92.98
649.084	92.9
649.406	91.54
649.729	89.95
650.052	89.16
650.374	88.98
650.697	88.82
651.019	88.83
651.342	88.9
651.664	89.16
651.987	88.97
652.309	89.2
652.631	89.28
652.953	89.07
653.276	88.73
653.598	88.52
653.92	88.13
654.242	88.26
654.564	88.29
654.886	88.35
655.208	88.46
655.53	88.36
655.851	88.31
656.173	88.21
656.495	88.06
656.816	86.98
657.138	86.2
657.46	86.26
657.781	88.09
658.103	88.98
658.424	89.97
658.746	90.84
659.067	91.24
659.388	90.63
659.709	90
660.031	90.84
660.352	90.87
660.673	89.85
660.994	90.68
661.315	92.6
661.636	93.4
661.957	93.4
662.278	92.12
662.599	91.55
662.919	91.69
663.24	91.58
663.561	91.23
