Data from T1_Reflection__63__17-43-34-637.txt Node

Date: Wed Jun 02 17:43:34 CEST 2021
User: mabdelazizm
Spectrometer: FLMS18565
Trigger mode: 0
Integration Time (sec): 2.000000E0
Scans to average: 1
Electric dark correction enabled: true
Nonlinearity correction enabled: false
Boxcar width: 12
XAxis mode: Wavelengths
Number of Pixels in Spectrum: 2048
>>>>>Begin Spectral Data<<<<<
179.071	33.59
179.452	-12.4
179.833	196.97
180.214	66.67
180.595	-675.76
180.977	218.63
181.358	474.63
181.739	276
182.12	155.07
182.501	208.97
182.882	53.8
183.262	36.2
183.643	379.85
184.024	49.21
184.405	34.84
184.786	44.07
185.166	33.63
185.547	26.3
185.927	19.15
186.308	19.01
186.689	21.87
187.069	22
187.449	19.91
187.83	22.57
188.21	21.12
188.59	16.49
188.971	16.5
189.351	14.44
189.731	12.55
190.111	12.96
190.491	16.8
190.871	14.44
191.251	14.33
191.631	13.35
192.011	14.34
192.391	13.11
192.771	13.14
193.151	15.87
193.531	12.54
193.91	12.08
194.29	8.7
194.67	7.77
195.049	8.11
195.429	8.39
195.808	8.27
196.188	6.68
196.567	5.98
196.946	5.68
197.326	4.53
197.705	3.07
198.084	3.85
198.464	2.4
198.843	3.51
199.222	5.19
199.601	5.18
199.98	4.79
200.359	5.06
200.738	5.23
201.117	4.54
201.496	4.62
201.875	3.61
202.254	2.84
202.632	2.08
203.011	2.89
203.39	3.45
203.768	4.97
204.147	5.99
204.525	5.88
204.904	6.47
205.282	6.78
205.661	6.95
206.039	6.74
206.418	6.41
206.796	6.44
207.174	7.5
207.552	7.71
207.931	7.81
208.309	7.27
208.687	7.09
209.065	6.77
209.443	6.92
209.821	7.49
210.199	6.95
210.577	7.16
210.954	6.5
211.332	6.46
211.71	6.66
212.088	6.98
212.465	6.32
212.843	6.24
213.221	6.28
213.598	5.75
213.976	5.34
214.353	4.54
214.731	3.99
215.108	4.19
215.485	3.56
215.863	3.55
216.24	3.47
216.617	3.54
216.994	3.18
217.371	3.52
217.749	3.47
218.126	2.83
218.503	2.95
218.88	2.5
219.256	2.23
219.633	2.13
220.01	2.58
220.387	3.37
220.764	3.28
221.14	3.2
221.517	2.74
221.894	2.51
222.27	2.76
222.647	2.48
223.023	2.5
223.4	2.26
223.776	2.58
224.153	3.09
224.529	3.28
224.905	3.62
225.282	3.69
225.658	3.79
226.034	3.38
226.41	3.47
226.786	3.43
227.162	3.49
227.538	3.66
227.914	3.49
228.29	3.47
228.666	3.28
229.042	3.03
229.418	2.59
229.793	2.35
230.169	2.16
230.545	1.94
230.92	1.94
231.296	1.78
231.672	1.71
232.047	1.65
232.422	1.64
232.798	1.57
233.173	1.26
233.549	1.05
233.924	0.81
234.299	0.89
234.674	0.74
235.05	0.51
235.425	0.53
235.8	0.46
236.175	0.39
236.55	0.34
236.925	0.19
237.3	0.23
237.675	0.28
238.049	0.42
238.424	0.59
238.799	0.56
239.174	0.57
239.548	0.73
239.923	0.66
240.297	0.69
240.672	0.73
241.046	0.61
241.421	0.51
241.795	0.35
242.17	0.44
242.544	0.54
242.918	0.4
243.293	0.36
243.667	0.27
244.041	0.31
244.415	0.34
244.789	0.43
245.163	0.45
245.537	0.44
245.911	0.4
246.285	0.53
246.659	0.39
247.033	0.38
247.406	0.2
247.78	0.1
248.154	0.19
248.528	0.17
248.901	0.07
249.275	0.17
249.648	0.13
250.022	0.19
250.395	0.25
250.769	0.3
251.142	0.36
251.515	0.35
251.888	0.38
252.262	0.48
252.635	0.5
253.008	0.46
253.381	0.49
253.754	0.55
254.127	0.5
254.5	0.5
254.873	0.43
255.246	0.55
255.619	0.42
255.992	0.59
256.364	0.52
256.737	0.61
257.11	0.71
257.483	0.74
257.855	0.73
258.228	0.83
258.6	0.87
258.973	0.97
259.345	0.95
259.718	0.86
260.09	0.84
260.462	0.87
260.834	0.84
261.207	0.8
261.579	0.85
261.951	0.83
262.323	0.84
262.695	0.8
263.067	0.68
263.439	0.65
263.811	0.66
264.183	0.71
264.555	0.65
264.927	0.71
265.298	0.62
265.67	0.67
266.042	0.63
266.413	0.49
266.785	0.45
267.156	0.48
267.528	0.43
267.899	0.31
268.271	0.19
268.642	0.17
269.013	0.27
269.385	0.29
269.756	0.25
270.127	0.25
270.498	0.29
270.87	0.26
271.241	0.28
271.612	0.32
271.983	0.34
272.354	0.43
272.724	0.48
273.095	0.49
273.466	0.5
273.837	0.51
274.208	0.58
274.578	0.6
274.949	0.59
275.32	0.57
275.69	0.66
276.061	0.72
276.431	0.66
276.802	0.68
277.172	0.74
277.542	0.78
277.913	0.76
278.283	0.71
278.653	0.71
279.023	0.69
279.394	0.66
279.764	0.65
280.134	0.61
280.504	0.64
280.874	0.55
281.244	0.48
281.614	0.47
281.983	0.37
282.353	0.38
282.723	0.39
283.093	0.34
283.462	0.22
283.832	0.21
284.202	0.18
284.571	0.2
284.941	0.2
285.31	0.13
285.68	0.15
286.049	0.1
286.418	0.14
286.788	0.2
287.157	0.22
287.526	0.21
287.895	0.19
288.264	0.23
288.633	0.28
289.002	0.27
289.371	0.28
289.74	0.21
290.109	0.23
290.478	0.28
290.847	0.24
291.216	0.32
291.585	0.22
291.953	0.18
292.322	0.13
292.691	0.13
293.059	0.1
293.428	0.1
293.796	0.1
294.165	0.08
294.533	0.13
294.901	0.14
295.27	0.15
295.638	0.11
296.006	0.01
296.374	-0.01
296.743	0.03
297.111	0.08
297.479	0.05
297.847	0.04
298.215	-0.02
298.583	-0.06
298.95	-0.04
299.318	-0.01
299.686	-0.03
300.054	0.04
300.422	0.02
300.789	0.07
301.157	0.03
301.525	0.11
301.892	0.13
302.26	0.14
302.627	0.09
302.994	0.05
303.362	0.07
303.729	0.03
304.097	0.07
304.464	0.08
304.831	0.02
305.198	0.01
305.565	0.01
305.932	-0
306.299	0.01
306.666	0.02
307.033	0.04
307.4	0.14
307.767	0.12
308.134	0.16
308.501	0.2
308.867	0.15
309.234	0.14
309.601	0.14
309.967	0.11
310.334	0.2
310.701	0.23
311.067	0.22
311.433	0.24
311.8	0.35
312.166	0.39
312.533	0.41
312.899	0.38
313.265	0.37
313.631	0.41
313.997	0.45
314.363	0.42
314.729	0.41
315.096	0.41
315.461	0.36
315.827	0.36
316.193	0.41
316.559	0.32
316.925	0.41
317.291	0.43
317.656	0.37
318.022	0.41
318.388	0.42
318.753	0.43
319.119	0.48
319.484	0.51
319.85	0.49
320.215	0.53
320.581	0.52
320.946	0.45
321.311	0.51
321.676	0.48
322.042	0.48
322.407	0.43
322.772	0.48
323.137	0.5
323.502	0.55
323.867	0.48
324.232	0.43
324.597	0.47
324.962	0.46
325.327	0.42
325.691	0.45
326.056	0.39
326.421	0.39
326.785	0.43
327.15	0.53
327.514	0.52
327.879	0.54
328.243	0.48
328.608	0.29
328.972	0.28
329.337	0.24
329.701	0.22
330.065	0.25
330.429	0.17
330.794	0.14
331.158	0.12
331.522	0.14
331.886	0.09
332.25	0.1
332.614	0.1
332.978	0.17
333.342	0.18
333.705	0.17
334.069	0.16
334.433	0.16
334.797	0.16
335.16	0.21
335.524	0.23
335.887	0.21
336.251	0.1
336.614	0.04
336.978	-0.01
337.341	0.06
337.705	0.16
338.068	0.26
338.431	0.28
338.794	0.24
339.158	0.19
339.521	0.18
339.884	0.18
340.247	0.26
340.61	0.23
340.973	0.13
341.336	0.1
341.699	0.03
342.062	0.04
342.424	0.01
342.787	-0.04
343.15	-0.06
343.512	-0.16
343.875	-0.21
344.238	-0.22
344.6	-0.3
344.963	-0.28
345.325	-0.25
345.688	-0.35
346.05	-0.31
346.412	-0.4
346.775	-0.41
347.137	-0.47
347.499	-0.47
347.861	-0.47
348.223	-0.43
348.585	-0.36
348.947	-0.43
349.309	-0.44
349.671	-0.33
350.033	-0.17
350.395	-0.21
350.757	-0.14
351.118	-0.07
351.48	-0.05
351.842	-0.06
352.203	-0.03
352.565	-0.02
352.927	0.03
353.288	0.02
353.65	0.06
354.011	0.07
354.372	0.05
354.734	0.21
355.095	0.24
355.456	0.23
355.817	0.23
356.179	0.19
356.54	0.24
356.901	0.31
357.262	0.35
357.623	0.28
357.984	0.41
358.345	0.37
358.705	0.35
359.066	0.22
359.427	0.19
359.788	0.21
360.148	0.13
360.509	0.2
360.87	0.27
361.23	0.28
361.591	0.32
361.951	0.28
362.312	0.24
362.672	0.18
363.032	0.05
363.393	0.13
363.753	0.17
364.113	0.18
364.473	0.27
364.833	0.27
365.193	0.18
365.553	0.14
365.913	0.11
366.273	0.12
366.633	0.25
366.993	0.13
367.353	0.14
367.713	0.05
368.072	0.03
368.432	0.13
368.792	0.11
369.151	0.12
369.511	0.12
369.87	0.11
370.23	0.08
370.589	0.13
370.949	0.13
371.308	0.21
371.667	0.3
372.027	0.38
372.386	0.31
372.745	0.22
373.104	0.12
373.463	0.2
373.822	0.14
374.181	0.28
374.54	0.31
374.899	0.26
375.258	0.25
375.617	0.14
375.975	0.16
376.334	0.16
376.693	0.09
377.052	0.16
377.41	0.1
377.769	0.05
378.127	-0.03
378.486	-0.1
378.844	-0.13
379.202	-0.16
379.561	-0.28
379.919	-0.24
380.277	-0.33
380.636	-0.39
380.994	-0.39
381.352	-0.39
381.71	-0.39
382.068	-0.35
382.426	-0.48
382.784	-0.39
383.142	-0.44
383.5	-0.45
383.857	-0.29
384.215	-0.37
384.573	-0.34
384.931	-0.25
385.288	-0.38
385.646	-0.38
386.003	-0.33
386.361	-0.26
386.718	-0.08
387.076	0.07
387.433	0.08
387.791	0.05
388.148	0.1
388.505	0.21
388.862	0.15
389.22	0.23
389.577	0.27
389.934	0.35
390.291	0.41
390.648	0.38
391.005	0.36
391.362	0.49
391.718	0.43
392.075	0.33
392.432	0.3
392.789	0.14
393.145	0.29
393.502	0.22
393.859	0.28
394.215	0.37
394.572	0.45
394.928	0.4
395.285	0.36
395.641	0.26
395.997	0.17
396.354	0.19
396.71	0.26
397.066	0.28
397.422	0.3
397.778	0.41
398.134	0.31
398.491	0.36
398.846	0.31
399.202	0.36
399.558	0.37
399.914	0.42
400.27	0.32
400.626	0.37
400.981	0.49
401.337	0.48
401.693	0.63
402.048	0.59
402.404	0.64
402.759	0.58
403.115	0.62
403.47	0.77
403.826	0.8
404.181	0.77
404.536	0.75
404.892	0.86
405.247	0.83
405.602	0.87
405.957	0.82
406.312	0.81
406.667	0.74
407.022	0.82
407.377	0.84
407.732	0.94
408.087	0.84
408.442	0.92
408.796	0.81
409.151	0.89
409.506	0.86
409.86	0.8
410.215	0.82
410.57	0.75
410.924	0.7
411.279	0.7
411.633	0.76
411.987	0.77
412.342	0.55
412.696	0.49
413.05	0.64
413.404	0.59
413.758	0.74
414.113	0.82
414.467	0.81
414.821	0.86
415.175	0.89
415.529	0.91
415.882	0.83
416.236	0.75
416.59	0.71
416.944	0.8
417.298	0.91
417.651	0.97
418.005	0.95
418.358	1.06
418.712	1.28
419.065	1.27
419.419	1.3
419.772	1.32
420.126	1.48
420.479	1.45
420.832	1.54
421.185	1.69
421.539	1.74
421.892	1.59
422.245	1.77
422.598	1.63
422.951	1.68
423.304	1.77
423.657	1.81
424.01	1.89
424.363	2.06
424.715	2.16
425.068	2.23
425.421	2.26
425.773	2.25
426.126	2.31
426.479	2.32
426.831	2.46
427.184	2.47
427.536	2.32
427.889	2.45
428.241	2.5
428.593	2.61
428.945	2.58
429.298	2.62
429.65	2.62
430.002	2.71
430.354	2.78
430.706	2.89
431.058	2.91
431.41	2.88
431.762	2.93
432.114	2.86
432.466	2.81
432.817	2.73
433.169	2.64
433.521	2.76
433.872	2.84
434.224	2.82
434.576	2.9
434.927	2.77
435.279	2.91
435.63	2.78
435.981	2.73
436.333	2.85
436.684	2.81
437.035	2.75
437.387	2.66
437.738	2.54
438.089	2.5
438.44	2.41
438.791	2.3
439.142	2.4
439.493	2.39
439.844	2.31
440.195	2.32
440.545	2.24
440.896	2.28
441.247	2.42
441.598	2.48
441.948	2.46
442.299	2.35
442.649	2.25
443	2.32
443.35	2.27
443.701	2.3
444.051	2.27
444.401	2.45
444.752	2.38
445.102	2.33
445.452	2.3
445.802	2.32
446.152	2.37
446.502	2.46
446.852	2.53
447.202	2.57
447.552	2.7
447.902	2.63
448.252	2.68
448.602	4.31
448.952	4.48
449.301	4.48
449.651	4.46
450.001	4.34
450.35	4.42
450.7	4.47
451.049	4.53
451.399	4.61
451.748	4.6
452.097	4.59
452.447	4.59
452.796	4.57
453.145	4.47
453.494	4.55
453.843	4.54
454.193	4.68
454.542	4.76
454.891	4.8
455.239	4.88
455.588	4.92
455.937	4.98
456.286	5.03
456.635	5.05
456.984	5.08
457.332	3.3
457.681	3.13
458.03	3.28
458.378	3.35
458.727	3.59
459.075	3.66
459.423	3.82
459.772	3.87
460.12	3.98
460.468	4.07
460.817	4.1
461.165	4.19
461.513	4.15
461.861	4.34
462.209	4.52
462.557	4.49
462.905	4.35
463.253	4.45
463.601	4.53
463.949	4.53
464.297	4.57
464.644	4.61
464.992	4.59
465.34	4.66
465.687	4.68
466.035	4.75
466.383	4.9
466.73	4.87
467.078	4.71
467.425	4.6
467.772	4.53
468.12	4.43
468.467	4.41
468.814	4.41
469.161	4.24
469.508	4.18
469.856	4.04
470.203	3.96
470.55	3.7
470.897	3.69
471.243	3.7
471.59	3.72
471.937	3.65
472.284	3.6
472.631	3.5
472.977	3.48
473.324	3.53
473.671	3.47
474.017	3.36
474.364	3.32
474.71	3.24
475.057	3.1
475.403	3.04
475.749	3.06
476.096	3.02
476.442	3
476.788	2.99
477.134	2.98
477.48	2.83
477.826	2.84
478.172	2.94
478.518	3.02
478.864	3.14
479.21	3.23
479.556	3.15
479.902	3.11
480.248	3.15
480.593	3.08
480.939	3.04
481.285	3.15
481.63	3.17
481.976	3.18
482.321	3.18
482.667	3.32
483.012	3.42
483.357	3.5
483.703	3.62
484.048	3.83
484.393	4.09
484.738	4.26
485.084	4.38
485.429	4.56
485.774	4.81
486.119	5.09
486.464	5.43
486.808	5.66
487.153	5.96
487.498	6.18
487.843	6.51
488.188	6.95
488.532	7.42
488.877	7.87
489.222	8.44
489.566	8.94
489.911	9.45
490.255	10.03
490.6	10.71
490.944	11.31
491.288	11.8
491.633	12.41
491.977	13.07
492.321	13.8
492.665	14.46
493.009	15.17
493.353	15.97
493.697	16.73
494.041	17.54
494.385	18.31
494.729	19.19
495.073	20.08
495.417	21.04
495.76	21.88
496.104	22.85
496.448	23.66
496.791	24.52
497.135	25.48
497.479	26.42
497.822	27.51
498.165	28.59
498.509	29.64
498.852	30.62
499.196	31.41
499.539	32.43
499.882	33.49
500.225	34.53
500.568	35.42
500.911	36.27
501.254	37.21
501.597	38.05
501.94	38.87
502.283	39.76
502.626	40.59
502.969	41.51
503.312	42.3
503.654	43.08
503.997	43.8
504.34	44.63
504.682	45.53
505.025	46.58
505.367	47.39
505.71	47.98
506.052	48.77
506.395	49.36
506.737	50
507.079	50.74
507.421	51.4
507.764	52.28
508.106	53.04
508.448	53.75
508.79	54.4
509.132	55.08
509.474	55.79
509.816	56.38
510.158	57.03
510.499	57.76
510.841	58.26
511.183	58.8
511.525	59.35
511.866	59.86
512.208	60.5
512.549	61.05
512.891	61.51
513.232	61.96
513.574	62.3
513.915	62.65
514.256	63.38
514.598	63.95
514.939	64.28
515.28	64.75
515.621	65.06
515.962	65.49
516.303	65.96
516.644	66.29
516.985	66.64
517.326	66.97
517.667	67.17
518.008	67.34
518.349	67.61
518.69	68.01
519.03	68.06
519.371	68.39
519.712	68.69
520.052	68.81
520.393	69.17
520.733	69.44
521.074	69.58
521.414	69.93
521.754	70.03
522.095	70.26
522.435	70.58
522.775	70.74
523.115	70.74
523.455	71.06
523.795	71.17
524.135	71.25
524.475	71.49
524.815	71.59
525.155	71.78
525.495	71.79
525.835	72.05
526.175	72.38
526.514	72.73
526.854	72.97
527.194	72.93
527.533	73.19
527.873	73.53
528.212	73.69
528.552	73.89
528.891	74.01
529.23	73.91
529.57	74.13
529.909	74.15
530.248	74.35
530.587	74.44
530.927	74.61
531.266	74.59
531.605	74.75
531.944	74.91
532.283	75.13
532.621	75.4
532.96	75.73
533.299	75.89
533.638	76.05
533.977	76.44
534.315	76.26
534.654	76.31
534.992	76.35
535.331	76.22
535.67	76.34
536.008	76.55
536.346	76.38
536.685	76.38
537.023	76.39
537.361	76.5
537.7	76.83
538.038	76.92
538.376	77.08
538.714	77.33
539.052	77.54
539.39	77.68
539.728	78.03
540.066	78.34
540.404	78.36
540.741	78.53
541.079	78.51
541.417	78.41
541.755	78.41
542.092	78.49
542.43	78.41
542.767	78.51
543.105	78.58
543.442	78.65
543.78	78.96
544.117	79.13
544.454	78.91
544.792	79.12
545.129	79.2
545.466	79.7
545.803	79.64
546.14	79.41
546.477	79.48
546.814	79.51
547.151	79.37
547.488	79.33
547.825	79.32
548.162	79.21
548.499	79.18
548.835	79.16
549.172	78.99
549.509	78.95
549.845	78.86
550.182	78.71
550.518	78.6
550.855	78.73
551.191	78.81
551.528	78.82
551.864	78.81
552.2	78.71
552.537	78.65
552.873	78.93
553.209	78.99
553.545	79.27
553.881	78.91
554.217	78.98
554.553	79.31
554.889	79.32
555.225	79.28
555.561	79.34
555.896	79.18
556.232	78.97
556.568	78.81
556.903	78.81
557.239	78.87
557.575	79.05
557.91	79.27
558.245	79.38
558.581	79.85
558.916	80.01
559.252	79.83
559.587	79.82
559.922	79.94
560.257	80.22
560.592	80.44
560.928	80.63
561.263	80.53
561.598	80.77
561.933	80.65
562.267	80.89
562.602	81.06
562.937	80.98
563.272	81.19
563.607	81.42
563.941	81.47
564.276	81.66
564.611	82.06
564.945	82.13
565.28	82.16
565.614	82.17
565.949	82.01
566.283	82.18
566.617	82.06
566.951	81.76
567.286	81.72
567.62	82.05
567.954	82.2
568.288	82.36
568.622	82.27
568.956	82.17
569.29	82.04
569.624	82.07
569.958	82.1
570.292	82.14
570.626	82.06
570.959	82.1
571.293	82.34
571.627	82.3
571.96	82.33
572.294	82.25
572.627	82.11
572.961	81.92
573.294	82.05
573.627	82
573.961	82.1
574.294	82.37
574.627	82.51
574.961	82.67
575.294	82.73
575.627	82.78
575.96	82.69
576.293	82.76
576.626	82.61
576.959	82.62
577.292	82.74
577.624	82.81
577.957	82.9
578.29	83.04
578.623	83.13
578.955	83.1
579.288	83.12
579.62	82.99
579.953	83
580.285	82.97
580.618	83.13
580.95	83.47
581.282	83.64
581.615	83.7
581.947	83.76
582.279	83.68
582.611	83.7
582.943	83.56
583.275	83.55
583.607	83.67
583.939	83.71
584.271	83.57
584.603	83.51
584.935	83.61
585.267	83.62
585.598	83.45
585.93	83.7
586.262	83.72
586.593	83.6
586.925	83.3
587.256	83.4
587.588	83.35
587.919	83.42
588.25	83.42
588.582	83.37
588.913	83.43
589.244	83.31
589.575	83.43
589.907	83.52
590.238	83.67
590.569	83.82
590.9	83.71
591.231	83.58
591.562	83.65
591.892	83.68
592.223	83.83
592.554	83.98
592.885	84.06
593.215	83.89
593.546	83.85
593.877	83.84
594.207	83.63
594.538	83.67
594.868	83.45
595.198	83.88
595.529	83.88
595.859	84.09
596.189	84.23
596.52	84.4
596.85	84.62
597.18	84.68
597.51	84.65
597.84	84.6
598.17	84.55
598.5	84.48
598.83	84.37
599.16	84.47
599.489	84.54
599.819	84.6
600.149	84.53
600.479	84.15
600.808	84.09
601.138	84.03
601.467	84.13
601.797	84.15
602.126	84.23
602.456	84.22
602.785	84.26
603.114	84.23
603.443	84.04
603.773	84.19
604.102	84.08
604.431	83.87
604.76	83.74
605.089	83.57
605.418	83.49
605.747	83.2
606.076	82.9
606.405	82.9
606.733	82.96
607.062	82.85
607.391	82.56
607.72	82.49
608.048	82.38
608.377	82.41
608.705	82.41
609.034	82.33
609.362	82.29
609.69	82.23
610.019	82.34
610.347	82.45
610.675	82.43
611.004	82.44
611.332	82.72
611.66	82.84
611.988	82.53
612.316	82.27
612.644	82.12
612.972	82.31
613.3	82.14
613.627	82.04
613.955	82.39
614.283	82.47
614.611	82.46
614.938	82.57
615.266	82.83
615.593	83.26
615.921	83.15
616.248	83.46
616.576	83.36
616.903	83.71
617.23	83.72
617.558	83.9
617.885	84.38
618.212	84.25
618.539	84.05
618.866	84.19
619.193	84.01
619.52	83.75
619.847	83.5
620.174	83.68
620.501	83.87
620.828	83.84
621.155	83.69
621.481	83.72
621.808	83.64
622.135	83.55
622.461	83.98
622.788	83.98
623.114	83.56
623.441	83.62
623.767	83.19
624.093	83.44
624.42	82.97
624.746	83.37
625.072	83.68
625.398	83.93
625.725	84.08
626.051	83.68
626.377	84.13
626.703	84.14
627.029	84.26
627.354	84.41
627.68	84.81
628.006	84.61
628.332	83.91
628.658	84.26
628.983	84.82
629.309	85.26
629.634	85.83
629.96	86.27
630.285	86.63
630.611	86.56
630.936	86.62
631.262	87.05
631.587	87.46
631.912	87.82
632.237	88.11
632.562	88.69
632.887	88.25
633.213	87.83
633.538	88.23
633.863	87.64
634.187	88.35
634.512	87.7
634.837	87.33
635.162	87.65
635.487	87.31
635.811	86.77
636.136	87.74
636.461	88.83
636.785	88.15
637.11	88.03
637.434	87.5
637.758	87.28
638.083	86.74
638.407	87.18
638.731	87.48
639.056	87.53
639.38	87.33
639.704	87.15
640.028	87.07
640.352	86.99
640.676	86.1
641	86.98
641.324	87.08
641.648	86.51
641.972	87.13
642.295	86.61
642.619	87.29
642.943	87.02
643.266	85.7
643.59	86.02
643.913	86.86
644.237	85.88
644.56	84.99
644.884	85.09
645.207	84.92
645.53	85.05
645.854	85.31
646.177	85.38
646.5	84.88
646.823	84.57
647.146	84.65
647.469	84.89
647.792	84.61
648.115	84.86
648.438	85.6
648.761	88.14
649.084	87.56
649.406	86.46
649.729	84.76
650.052	84.43
650.374	84.12
650.697	83.76
651.019	84.06
651.342	84.55
651.664	84.52
651.987	84.31
652.309	84.5
652.631	84.96
652.953	84.66
653.276	84.49
653.598	84.36
653.92	84.6
654.242	84.58
654.564	84.82
654.886	84.78
655.208	84.86
655.53	84.8
655.851	84.86
656.173	84.73
656.495	84.49
656.816	83.28
657.138	82.76
657.46	83.24
657.781	85.58
658.103	86.34
658.424	87.78
658.746	89.3
659.067	89.58
659.388	88.83
659.709	88.95
660.031	89.99
660.352	90.41
660.673	89.48
660.994	90.36
661.315	91.23
661.636	92.21
661.957	90.79
662.278	89.63
662.599	88.71
662.919	88.94
