Data from T1_Reflection__90__18-01-22-603.txt Node

Date: Wed Jun 02 18:01:22 CEST 2021
User: mabdelazizm
Spectrometer: FLMS18565
Trigger mode: 0
Integration Time (sec): 2.000000E0
Scans to average: 1
Electric dark correction enabled: true
Nonlinearity correction enabled: false
Boxcar width: 12
XAxis mode: Wavelengths
Number of Pixels in Spectrum: 2048
>>>>>Begin Spectral Data<<<<<
179.071	-70.04
179.452	-320.66
179.833	-4181.82
180.214	-342.86
180.595	812.12
180.977	-1.52
181.358	-173.66
181.739	-154.67
182.12	37.48
182.501	67.77
182.882	48.96
183.262	65.03
183.643	348.29
184.024	32.85
184.405	29.38
184.786	27.32
185.166	18.52
185.547	13.58
185.927	17.64
186.308	21.37
186.689	22.5
187.069	20.32
187.449	19.59
187.83	14.84
188.21	6.23
188.59	7.08
188.971	6.28
189.351	-0.43
189.731	0.59
190.111	4.53
190.491	5.37
190.871	2.16
191.251	2.75
191.631	4.33
192.011	2.6
192.391	4.7
192.771	8.2
193.151	9.41
193.531	5.38
193.91	3.6
194.29	2.76
194.67	2.41
195.049	3.13
195.429	1.25
195.808	-0.25
196.188	0.18
196.567	1.07
196.946	1.05
197.326	1.31
197.705	1.71
198.084	1.87
198.464	1.37
198.843	3.74
199.222	4.49
199.601	4.91
199.98	4.47
200.359	4.92
200.738	5.75
201.117	5.38
201.496	6.25
201.875	5.78
202.254	2.52
202.632	1.37
203.011	2.09
203.39	1.79
203.768	1.21
204.147	1.78
204.525	1.75
204.904	1.81
205.282	2.51
205.661	1.91
206.039	1.88
206.418	0.96
206.796	2.08
207.174	2.75
207.552	3.04
207.931	3.25
208.309	2.47
208.687	2.81
209.065	2.79
209.443	2.29
209.821	2.61
210.199	2.09
210.577	1.73
210.954	1.38
211.332	0.59
211.71	1.92
212.088	2.4
212.465	1.94
212.843	2.45
213.221	4
213.598	4.44
213.976	4.73
214.353	4.48
214.731	3.84
215.108	4.16
215.485	3.76
215.863	3.8
216.24	3.58
216.617	4.43
216.994	3.52
217.371	4.11
217.749	4.26
218.126	3.37
218.503	3.52
218.88	3.85
219.256	3.97
219.633	3.54
220.01	4.16
220.387	4.6
220.764	5.22
221.14	4.89
221.517	4.78
221.894	4.96
222.27	4.87
222.647	4.56
223.023	4.13
223.4	3.75
223.776	3.66
224.153	3.64
224.529	3.56
224.905	3.81
225.282	3.8
225.658	3.72
226.034	3.17
226.41	3.53
226.786	3.05
227.162	3.03
227.538	3.11
227.914	2.98
228.29	3.01
228.666	2.77
229.042	2.73
229.418	2.6
229.793	2.71
230.169	2.43
230.545	2.29
230.92	2.24
231.296	2.13
231.672	2.24
232.047	1.95
232.422	1.96
232.798	2.04
233.173	1.91
233.549	1.99
233.924	1.91
234.299	1.77
234.674	1.87
235.05	1.72
235.425	1.71
235.8	1.55
236.175	1.49
236.55	1.41
236.925	1.35
237.3	1.42
237.675	1.25
238.049	1.37
238.424	1.48
238.799	1.43
239.174	1.35
239.548	1.49
239.923	1.47
240.297	1.55
240.672	1.53
241.046	1.53
241.421	1.54
241.795	1.42
242.17	1.33
242.544	1.38
242.918	1.22
243.293	1.19
243.667	1.22
244.041	1.17
244.415	1.13
244.789	1.22
245.163	1.27
245.537	1.35
245.911	1.32
246.285	1.36
246.659	1.28
247.033	1.4
247.406	1.29
247.78	1.16
248.154	1.22
248.528	1.16
248.901	1.1
249.275	1.15
249.648	1.11
250.022	1.13
250.395	1.14
250.769	1.16
251.142	1.17
251.515	1.16
251.888	1.24
252.262	1.36
252.635	1.43
253.008	1.36
253.381	1.33
253.754	1.38
254.127	1.33
254.5	1.35
254.873	1.28
255.246	1.39
255.619	1.36
255.992	1.37
256.364	1.32
256.737	1.36
257.11	1.48
257.483	1.45
257.855	1.52
258.228	1.51
258.6	1.58
258.973	1.63
259.345	1.6
259.718	1.56
260.09	1.53
260.462	1.62
260.834	1.66
261.207	1.59
261.579	1.62
261.951	1.5
262.323	1.53
262.695	1.55
263.067	1.53
263.439	1.47
263.811	1.46
264.183	1.52
264.555	1.44
264.927	1.48
265.298	1.41
265.67	1.42
266.042	1.43
266.413	1.34
266.785	1.31
267.156	1.22
267.528	1.16
267.899	1.12
268.271	1.04
268.642	1.06
269.013	1.1
269.385	1.07
269.756	0.95
270.127	0.94
270.498	1.03
270.87	0.99
271.241	1.03
271.612	1.02
271.983	1
272.354	1.02
272.724	1.09
273.095	1.14
273.466	1.21
273.837	1.2
274.208	1.17
274.578	1.19
274.949	1.16
275.32	1.15
275.69	1.19
276.061	1.27
276.431	1.28
276.802	1.31
277.172	1.36
277.542	1.3
277.913	1.27
278.283	1.23
278.653	1.21
279.023	1.34
279.394	1.34
279.764	1.3
280.134	1.26
280.504	1.31
280.874	1.18
281.244	1.12
281.614	1.09
281.983	1.06
282.353	1.05
282.723	0.99
283.093	1.02
283.462	0.93
283.832	0.99
284.202	1.05
284.571	1.07
284.941	1.01
285.31	0.94
285.68	0.99
286.049	0.95
286.418	0.94
286.788	1.13
287.157	1.14
287.526	1.07
287.895	1.07
288.264	1.04
288.633	1.01
289.002	0.98
289.371	1.02
289.74	0.99
290.109	1.06
290.478	1.09
290.847	1.05
291.216	1.01
291.585	0.92
291.953	0.84
292.322	0.78
292.691	0.82
293.059	0.75
293.428	0.65
293.796	0.57
294.165	0.58
294.533	0.57
294.901	0.54
295.27	0.58
295.638	0.53
296.006	0.39
296.374	0.39
296.743	0.49
297.111	0.5
297.479	0.46
297.847	0.42
298.215	0.41
298.583	0.34
298.95	0.28
299.318	0.28
299.686	0.28
300.054	0.29
300.422	0.3
300.789	0.38
301.157	0.42
301.525	0.4
301.892	0.47
302.26	0.47
302.627	0.49
302.994	0.53
303.362	0.49
303.729	0.48
304.097	0.51
304.464	0.52
304.831	0.47
305.198	0.42
305.565	0.37
305.932	0.3
306.299	0.37
306.666	0.43
307.033	0.47
307.4	0.53
307.767	0.53
308.134	0.58
308.501	0.56
308.867	0.53
309.234	0.57
309.601	0.65
309.967	0.54
310.334	0.56
310.701	0.63
311.067	0.58
311.433	0.61
311.8	0.67
312.166	0.72
312.533	0.72
312.899	0.7
313.265	0.68
313.631	0.7
313.997	0.73
314.363	0.76
314.729	0.78
315.096	0.77
315.461	0.76
315.827	0.65
316.193	0.68
316.559	0.66
316.925	0.65
317.291	0.65
317.656	0.66
318.022	0.72
318.388	0.72
318.753	0.71
319.119	0.79
319.484	0.83
319.85	0.83
320.215	0.86
320.581	0.85
320.946	0.77
321.311	0.75
321.676	0.78
322.042	0.83
322.407	0.82
322.772	0.85
323.137	0.9
323.502	0.91
323.867	0.87
324.232	0.93
324.597	0.83
324.962	0.83
325.327	0.79
325.691	0.72
326.056	0.75
326.421	0.79
326.785	0.81
327.15	0.89
327.514	0.87
327.879	0.88
328.243	0.84
328.608	0.68
328.972	0.65
329.337	0.55
329.701	0.52
330.065	0.66
330.429	0.62
330.794	0.59
331.158	0.66
331.522	0.61
331.886	0.53
332.25	0.51
332.614	0.45
332.978	0.54
333.342	0.45
333.705	0.54
334.069	0.56
334.433	0.59
334.797	0.65
335.16	0.61
335.524	0.59
335.887	0.6
336.251	0.48
336.614	0.46
336.978	0.43
337.341	0.46
337.705	0.59
338.068	0.7
338.431	0.79
338.794	0.75
339.158	0.6
339.521	0.55
339.884	0.58
340.247	0.53
340.61	0.56
340.973	0.53
341.336	0.51
341.699	0.5
342.062	0.43
342.424	0.46
342.787	0.43
343.15	0.42
343.512	0.29
343.875	0.29
344.238	0.37
344.6	0.33
344.963	0.3
345.325	0.33
345.688	0.34
346.05	0.35
346.412	0.34
346.775	0.24
347.137	0.13
347.499	0.13
347.861	0.16
348.223	0.14
348.585	0.23
348.947	0.2
349.309	0.14
349.671	0.16
350.033	0.16
350.395	0.14
350.757	0.18
351.118	0.15
351.48	0.12
351.842	0.08
352.203	0.08
352.565	0.19
352.927	0.13
353.288	0.12
353.65	0.17
354.011	0.16
354.372	0.17
354.734	0.22
355.095	0.25
355.456	0.14
355.817	0.19
356.179	0.21
356.54	0.18
356.901	0.2
357.262	0.27
357.623	0.29
357.984	0.39
358.345	0.43
358.705	0.38
359.066	0.39
359.427	0.41
359.788	0.36
360.148	0.46
360.509	0.48
360.87	0.53
361.23	0.6
361.591	0.66
361.951	0.6
362.312	0.58
362.672	0.49
363.032	0.49
363.393	0.49
363.753	0.48
364.113	0.41
364.473	0.52
364.833	0.48
365.193	0.39
365.553	0.46
365.913	0.44
366.273	0.45
366.633	0.43
366.993	0.19
367.353	0.21
367.713	0.14
368.072	0.14
368.432	0.14
368.792	0.23
369.151	0.24
369.511	0.29
369.87	0.34
370.23	0.24
370.589	0.11
370.949	0.15
371.308	0.12
371.667	0.22
372.027	0.18
372.386	0.18
372.745	0.14
373.104	0.08
373.463	0.03
373.822	-0.02
374.181	0.04
374.54	-0
374.899	-0.01
375.258	-0.06
375.617	-0.15
375.975	-0.08
376.334	-0.22
376.693	-0.17
377.052	-0.14
377.41	-0.15
377.769	-0.25
378.127	-0.3
378.486	-0.36
378.844	-0.4
379.202	-0.36
379.561	-0.33
379.919	-0.27
380.277	-0.4
380.636	-0.39
380.994	-0.37
381.352	-0.38
381.71	-0.31
382.068	-0.24
382.426	-0.23
382.784	-0.11
383.142	-0.08
383.5	-0.1
383.857	-0
384.215	0.01
384.573	0.1
384.931	0.23
385.288	0.24
385.646	0.15
386.003	0.13
386.361	0.18
386.718	0.3
387.076	0.3
387.433	0.25
387.791	0.27
388.148	0.24
388.505	0.16
388.862	0.13
389.22	0.26
389.577	0.23
389.934	0.33
390.291	0.36
390.648	0.31
391.005	0.32
391.362	0.26
391.718	0.15
392.075	0.1
392.432	0.12
392.789	0.04
393.145	0.07
393.502	0.03
393.859	0.02
394.215	0.08
394.572	0.18
394.928	0.15
395.285	0.14
395.641	0.08
395.997	0.07
396.354	0.15
396.71	0.22
397.066	0.3
397.422	0.52
397.778	0.51
398.134	0.44
398.491	0.45
398.846	0.4
399.202	0.35
399.558	0.32
399.914	0.3
400.27	0.36
400.626	0.37
400.981	0.35
401.337	0.29
401.693	0.31
402.048	0.24
402.404	0.27
402.759	0.2
403.115	0.23
403.47	0.26
403.826	0.28
404.181	0.2
404.536	0.18
404.892	0.23
405.247	0.18
405.602	0.11
405.957	0.03
406.312	-0.05
406.667	-0.1
407.022	-0.04
407.377	0.03
407.732	0
408.087	0.07
408.442	0.14
408.796	0.07
409.151	0.04
409.506	0.02
409.86	0.02
410.215	-0
410.57	0.01
410.924	0.06
411.279	-0.03
411.633	0.07
411.987	0.01
412.342	-0.07
412.696	-0.08
413.05	-0.05
413.404	-0.07
413.758	-0.04
414.113	-0.03
414.467	0.02
414.821	0.02
415.175	0
415.529	0.12
415.882	0.03
416.236	-0.11
416.59	-0.07
416.944	-0.07
417.298	-0.05
417.651	-0.02
418.005	0.02
418.358	0.16
418.712	0.33
419.065	0.4
419.419	0.36
419.772	0.32
420.126	0.49
420.479	0.47
420.832	0.61
421.185	0.63
421.539	0.64
421.892	0.64
422.245	0.73
422.598	0.64
422.951	0.69
423.304	0.66
423.657	0.7
424.01	0.7
424.363	0.77
424.715	0.87
425.068	0.95
425.421	0.88
425.773	0.86
426.126	0.91
426.479	1
426.831	1.13
427.184	1.02
427.536	0.94
427.889	0.96
428.241	1.14
428.593	1.16
428.945	1.06
429.298	1.12
429.65	1.12
430.002	1.28
430.354	1.3
430.706	1.26
431.058	1.29
431.41	1.36
431.762	1.37
432.114	1.33
432.466	1.35
432.817	1.33
433.169	1.26
433.521	1.36
433.872	1.4
434.224	1.41
434.576	1.5
434.927	1.39
435.279	1.4
435.63	1.17
435.981	1.25
436.333	1.27
436.684	1.24
437.035	1.06
437.387	1.11
437.738	1.2
438.089	1.12
438.44	1.07
438.791	1.09
439.142	1.11
439.493	1.14
439.844	1.13
440.195	1.09
440.545	1.11
440.896	1.12
441.247	1.11
441.598	1.19
441.948	1.16
442.299	1.04
442.649	1
443	0.98
443.35	0.93
443.701	0.84
444.051	0.84
444.401	1
444.752	0.86
445.102	0.82
445.452	0.87
445.802	0.85
446.152	0.81
446.502	0.82
446.852	0.83
447.202	0.85
447.552	0.85
447.902	0.95
448.252	0.96
448.602	2.51
448.952	2.63
449.301	2.62
449.651	2.68
450.001	2.73
450.35	2.77
450.7	2.79
451.049	2.69
451.399	2.77
451.748	2.87
452.097	2.85
452.447	3.09
452.796	3.06
453.145	3.04
453.494	3.15
453.843	3.15
454.193	3.17
454.542	3.29
454.891	3.33
455.239	3.27
455.588	3.17
455.937	3.23
456.286	3.35
456.635	3.21
456.984	3.21
457.332	1.44
457.681	1.36
458.03	1.35
458.378	1.26
458.727	1.28
459.075	1.25
459.423	1.39
459.772	1.51
460.12	1.49
460.468	1.56
460.817	1.53
461.165	1.46
461.513	1.47
461.861	1.54
462.209	1.69
462.557	1.74
462.905	1.75
463.253	1.65
463.601	1.74
463.949	1.77
464.297	1.85
464.644	1.85
464.992	1.74
465.34	1.91
465.687	1.92
466.035	1.99
466.383	2.06
466.73	2.14
467.078	2.15
467.425	2.15
467.772	2.06
468.12	1.87
468.467	1.91
468.814	1.95
469.161	1.93
469.508	1.88
469.856	1.79
470.203	1.72
470.55	1.6
470.897	1.55
471.243	1.58
471.59	1.5
471.937	1.65
472.284	1.67
472.631	1.59
472.977	1.59
473.324	1.62
473.671	1.64
474.017	1.46
474.364	1.51
474.71	1.39
475.057	1.32
475.403	1.24
475.749	1.21
476.096	1.25
476.442	1.28
476.788	1.37
477.134	1.34
477.48	1.25
477.826	1.16
478.172	1.27
478.518	1.31
478.864	1.4
479.21	1.46
479.556	1.43
479.902	1.38
480.248	1.43
480.593	1.3
480.939	1.26
481.285	1.28
481.63	1.37
481.976	1.36
482.321	1.31
482.667	1.42
483.012	1.53
483.357	1.6
483.703	1.68
484.048	1.89
484.393	2.11
484.738	2.2
485.084	2.28
485.429	2.38
485.774	2.59
486.119	2.74
486.464	2.99
486.808	3.09
487.153	3.25
487.498	3.38
487.843	3.5
488.188	3.79
488.532	4.01
488.877	4.23
489.222	4.58
489.566	4.91
489.911	5.34
490.255	5.69
490.6	6.09
490.944	6.41
491.288	6.76
491.633	7.02
491.977	7.46
492.321	7.95
492.665	8.26
493.009	8.6
493.353	9.1
493.697	9.67
494.041	10.26
494.385	10.74
494.729	11.46
495.073	12.17
495.417	12.88
495.76	13.55
496.104	14.26
496.448	15.04
496.791	15.8
497.135	16.62
497.479	17.48
497.822	18.39
498.165	19.31
498.509	20.2
498.852	21.09
499.196	21.91
499.539	22.92
499.882	23.86
500.225	24.98
500.568	25.91
500.911	26.82
501.254	27.83
501.597	28.89
501.94	29.79
502.283	30.7
502.626	31.58
502.969	32.53
503.312	33.38
503.654	34.22
503.997	35.1
504.34	36.02
504.682	37.09
505.025	38.03
505.367	38.84
505.71	39.66
506.052	40.63
506.395	41.39
506.737	42.19
507.079	42.96
507.421	43.68
507.764	44.68
508.106	45.54
508.448	46.38
508.79	47.04
509.132	47.77
509.474	48.51
509.816	49.17
510.158	49.81
510.499	50.56
510.841	51.33
511.183	51.93
511.525	52.58
511.866	53.2
512.208	53.85
512.549	54.47
512.891	55.08
513.232	55.63
513.574	56.25
513.915	56.87
514.256	57.55
514.598	58.12
514.939	58.88
515.28	59.45
515.621	59.98
515.962	60.71
516.303	61.18
516.644	61.67
516.985	62.21
517.326	62.67
517.667	63.15
518.008	63.48
518.349	64.01
518.69	64.57
519.03	64.72
519.371	65.06
519.712	65.46
520.052	65.82
520.393	66.2
520.733	66.64
521.074	66.96
521.414	67.5
521.754	67.81
522.095	68.17
522.435	68.59
522.775	68.95
523.115	69.33
523.455	69.42
523.795	69.61
524.135	69.74
524.475	69.98
524.815	70.22
525.155	70.49
525.495	70.5
525.835	70.69
526.175	71.01
526.514	71.26
526.854	71.47
527.194	71.63
527.533	72.11
527.873	72.32
528.212	72.73
528.552	73.04
528.891	73.29
529.23	73.48
529.57	73.81
529.909	73.92
530.248	74.2
530.587	74.37
530.927	74.59
531.266	74.65
531.605	74.68
531.944	74.85
532.283	75.17
532.621	75.77
532.96	75.96
533.299	76.25
533.638	76.41
533.977	76.92
534.315	77.21
534.654	77.25
534.992	77.59
535.331	77.55
535.67	77.63
536.008	77.88
536.346	78.03
536.685	78.18
537.023	78.08
537.361	78.29
537.7	78.29
538.038	78.45
538.376	78.52
538.714	78.5
539.052	78.54
539.39	78.65
539.728	78.88
540.066	79.19
540.404	79.41
540.741	79.21
541.079	79.22
541.417	79.2
541.755	79.11
542.092	79.34
542.43	79.18
542.767	79.06
543.105	79.24
543.442	79.19
543.78	79.42
544.117	79.62
544.454	79.45
544.792	79.63
545.129	79.65
545.466	79.97
545.803	79.98
546.14	79.97
546.477	79.96
546.814	80.05
547.151	80.13
547.488	80.19
547.825	80.11
548.162	80.04
548.499	80.08
548.835	80.05
549.172	80.48
549.509	80.27
549.845	80.22
550.182	80.22
550.518	80
550.855	80.03
551.191	80.2
551.528	79.99
551.864	80.08
552.2	79.9
552.537	79.83
552.873	80.1
553.209	80.1
553.545	80.12
553.881	80.1
554.217	80.11
554.553	80.51
554.889	80.55
555.225	80.36
555.561	80.39
555.896	80.34
556.232	80.6
556.568	80.58
556.903	80.47
557.239	80.41
557.575	80.32
557.91	80.58
558.245	80.84
558.581	81.14
558.916	81.22
559.252	81.14
559.587	81.19
559.922	81.53
560.257	81.76
560.592	82.07
560.928	82.18
561.263	82.05
561.598	82.07
561.933	82.09
562.267	82.16
562.602	82.23
562.937	81.91
563.272	82.11
563.607	82.48
563.941	82.67
564.276	82.74
564.611	82.96
564.945	83.12
565.28	83.05
565.614	83.13
565.949	83.03
566.283	83.16
566.617	83.17
566.951	83.12
567.286	83.3
567.62	83.61
567.954	83.9
568.288	84.02
568.622	84.02
568.956	84.03
569.29	84.02
569.624	84.19
569.958	84.35
570.292	84.32
570.626	84.4
570.959	84.54
571.293	84.77
571.627	84.82
571.96	84.69
572.294	84.58
572.627	84.7
572.961	84.55
573.294	84.71
573.627	84.74
573.961	84.85
574.294	85.14
574.627	85.12
574.961	85.22
575.294	85.09
575.627	85.01
575.96	84.99
576.293	84.89
576.626	84.82
576.959	84.79
577.292	84.75
577.624	84.81
577.957	84.89
578.29	85.09
578.623	85.28
578.955	85.28
579.288	85.31
579.62	85.31
579.953	85.46
580.285	85.69
580.618	85.87
580.95	85.95
581.282	86.02
581.615	85.9
581.947	86.06
582.279	85.94
582.611	85.95
582.943	85.93
583.275	85.84
583.607	85.93
583.939	86.02
584.271	86.05
584.603	86.19
584.935	86.25
585.267	86.29
585.598	86.39
585.93	86.6
586.262	86.74
586.593	86.66
586.925	86.36
587.256	86.34
587.588	86.17
587.919	86.11
588.25	85.97
588.582	85.76
588.913	85.94
589.244	85.95
589.575	86.16
589.907	86.23
590.238	86.31
590.569	86.52
590.9	86.51
591.231	86.47
591.562	86.6
591.892	86.71
592.223	86.77
592.554	86.75
592.885	86.57
593.215	86.39
593.546	86.44
593.877	86.39
594.207	86.3
594.538	86.07
594.868	85.81
595.198	86.22
595.529	86.28
595.859	86.42
596.189	86.63
596.52	86.69
596.85	86.86
597.18	86.75
597.51	86.66
597.84	86.4
598.17	86.45
598.5	86.34
598.83	86.31
599.16	86.3
599.489	86.38
599.819	86.34
600.149	86.41
600.479	86.23
600.808	86.28
601.138	86.07
601.467	86.03
601.797	86.01
602.126	86.03
602.456	85.94
602.785	86.07
603.114	86.08
603.443	85.7
603.773	85.86
604.102	85.84
604.431	85.54
604.76	85.39
605.089	85.26
605.418	85.14
605.747	85.08
606.076	84.9
606.405	84.8
606.733	84.79
607.062	84.77
607.391	84.54
607.72	84.43
608.048	84.43
608.377	84.4
608.705	84.57
609.034	84.46
609.362	84.65
609.69	84.84
610.019	84.68
610.347	84.69
610.675	84.47
611.004	84.64
611.332	84.88
611.66	85.17
611.988	84.81
612.316	84.8
612.644	84.95
612.972	85.07
613.3	85.01
613.627	84.9
613.955	84.93
614.283	84.99
614.611	85.16
614.938	85.52
615.266	85.53
615.593	85.65
615.921	85.71
616.248	85.63
616.576	85.61
616.903	85.62
617.23	85.46
617.558	85.61
617.885	85.91
618.212	85.98
618.539	85.72
618.866	86.29
619.193	85.76
619.52	85.41
619.847	85.03
620.174	85.17
620.501	84.97
620.828	84.8
621.155	84.59
621.481	84.7
621.808	84.65
622.135	84.66
622.461	85.2
622.788	85.34
623.114	84.76
623.441	84.8
623.767	84.66
624.093	84.52
624.42	84.56
624.746	84.67
625.072	84.81
625.398	85.34
625.725	85.66
626.051	84.94
626.377	85.32
626.703	85.27
627.029	84.66
627.354	84.81
627.68	84.88
628.006	85.11
628.332	84.98
628.658	85.66
628.983	86.01
629.309	86.26
629.634	86.21
629.96	86.49
630.285	86.76
630.611	86.57
630.936	86.63
631.262	86.88
631.587	87.32
631.912	87.43
632.237	87.82
632.562	88.08
632.887	87.73
633.213	87.82
633.538	87.45
633.863	86.86
634.187	87.92
634.512	87.56
634.837	87.44
635.162	88.02
635.487	87.77
635.811	87.58
636.136	87.92
636.461	87.86
636.785	87.46
637.11	87.98
637.434	87.73
637.758	88.1
638.083	88.08
638.407	88.29
638.731	88.24
639.056	87.81
639.38	87.64
639.704	87.15
640.028	87.38
640.352	86.98
640.676	86.73
641	87.37
641.324	86.93
641.648	87.03
641.972	87.34
642.295	86.53
642.619	86.43
642.943	87.08
643.266	86.15
643.59	86.33
643.913	87.25
644.237	86.96
644.56	87.06
644.884	86.68
645.207	86.19
645.53	86.9
645.854	87.16
646.177	87.26
646.5	87.3
646.823	87.04
647.146	87
647.469	87.05
647.792	86.83
648.115	86.94
648.438	87.58
648.761	90.01
649.084	89.83
649.406	88.93
649.729	87.73
650.052	87
650.374	86.91
650.697	86.82
651.019	86.68
651.342	86.75
651.664	86.88
651.987	86.54
652.309	86.63
652.631	86.7
652.953	86.52
653.276	86.38
653.598	86.25
653.92	86.1
654.242	86.06
654.564	85.9
654.886	85.93
655.208	85.88
655.53	86.08
655.851	86.2
656.173	86.27
656.495	86.11
656.816	84.92
657.138	83.99
657.46	83.95
657.781	84.83
658.103	85.92
658.424	87.02
658.746	88.03
659.067	88.25
659.388	88.34
659.709	87.53
660.031	88.58
660.352	88.21
660.673	87.75
660.994	87.94
661.315	88.54
661.636	88.38
661.957	87.12
662.278	86.63
662.599	86.56
662.919	86.62
663.24	86.15
663.561	85.96
663.881	85.88
