Data from T1_Reflection__89__18-00-56-604.txt Node

Date: Wed Jun 02 18:00:56 CEST 2021
User: mabdelazizm
Spectrometer: FLMS18565
Trigger mode: 0
Integration Time (sec): 2.000000E0
Scans to average: 1
Electric dark correction enabled: true
Nonlinearity correction enabled: false
Boxcar width: 12
XAxis mode: Wavelengths
Number of Pixels in Spectrum: 2048
>>>>>Begin Spectral Data<<<<<
179.071	185.6
179.452	440.5
179.833	3045.45
180.214	366.67
180.595	-4712.12
180.977	372.24
181.358	1058.05
181.739	766.67
182.12	467.88
182.501	422.92
182.882	170.06
183.262	195.71
183.643	1214.83
184.024	-110.08
184.405	-9.29
184.786	17.66
185.166	16.97
185.547	18.77
185.927	5.31
186.308	6.69
186.689	5.91
187.069	8.84
187.449	8.48
187.83	10.25
188.21	6.29
188.59	5.54
188.971	4.14
189.351	3.67
189.731	8.39
190.111	8.9
190.491	7.96
190.871	6.94
191.251	7.59
191.631	7.13
192.011	6.87
192.391	9.93
192.771	11.29
193.151	14.59
193.531	12.48
193.91	10.68
194.29	9.8
194.67	7.67
195.049	8.52
195.429	8.26
195.808	7.87
196.188	7.93
196.567	7.13
196.946	7.02
197.326	6.8
197.705	6.74
198.084	6.61
198.464	6.36
198.843	6.9
199.222	6.89
199.601	6.65
199.98	6.81
200.359	6.95
200.738	7.93
201.117	7.51
201.496	7.4
201.875	5.23
202.254	3.73
202.632	2.47
203.011	1.87
203.39	1.45
203.768	1.55
204.147	3.38
204.525	2.24
204.904	3.06
205.282	3.73
205.661	3.55
206.039	4.91
206.418	3.84
206.796	4.37
207.174	5.22
207.552	6.45
207.931	6.09
208.309	5.49
208.687	4.85
209.065	4.98
209.443	4.8
209.821	5.94
210.199	5.42
210.577	5.46
210.954	5.15
211.332	5.04
211.71	5.62
212.088	6.33
212.465	6.11
212.843	6.6
213.221	6.85
213.598	6.26
213.976	6.04
214.353	4.64
214.731	3.55
215.108	3.66
215.485	2.73
215.863	2.96
216.24	2.87
216.617	2.83
216.994	1.83
217.371	2.33
217.749	2.46
218.126	2.11
218.503	2.31
218.88	2.56
219.256	2.56
219.633	2.08
220.01	2.61
220.387	2.85
220.764	3.01
221.14	3.23
221.517	2.96
221.894	3.45
222.27	3.49
222.647	3.61
223.023	3.67
223.4	3.74
223.776	4.35
224.153	4.79
224.529	4.8
224.905	5.06
225.282	5.13
225.658	5.17
226.034	4.42
226.41	4.59
226.786	4.3
227.162	4.21
227.538	4.21
227.914	4.03
228.29	4.08
228.666	3.68
229.042	3.72
229.418	3.44
229.793	3.51
230.169	3.32
230.545	2.94
230.92	2.8
231.296	2.63
231.672	2.52
232.047	2.25
232.422	2.2
232.798	2.21
233.173	2.06
233.549	1.98
233.924	1.72
234.299	1.65
234.674	1.59
235.05	1.37
235.425	1.55
235.8	1.64
236.175	1.64
236.55	1.68
236.925	1.5
237.3	1.58
237.675	1.5
238.049	1.7
238.424	1.84
238.799	1.85
239.174	1.75
239.548	1.94
239.923	1.98
240.297	2.04
240.672	2
241.046	2.06
241.421	2.04
241.795	1.87
242.17	1.87
242.544	1.79
242.918	1.73
243.293	1.81
243.667	1.81
244.041	1.88
244.415	1.87
244.789	1.99
245.163	1.87
245.537	1.9
245.911	1.88
246.285	2.04
246.659	2.06
247.033	2.16
247.406	2.03
247.78	1.93
248.154	1.99
248.528	2.11
248.901	2.02
249.275	2.04
249.648	2.08
250.022	2.1
250.395	2.1
250.769	2.12
251.142	2.26
251.515	2.23
251.888	2.31
252.262	2.4
252.635	2.43
253.008	2.37
253.381	2.34
253.754	2.45
254.127	2.43
254.5	2.45
254.873	2.49
255.246	2.54
255.619	2.46
255.992	2.39
256.364	2.34
256.737	2.37
257.11	2.42
257.483	2.39
257.855	2.29
258.228	2.33
258.6	2.37
258.973	2.38
259.345	2.42
259.718	2.38
260.09	2.41
260.462	2.38
260.834	2.41
261.207	2.37
261.579	2.39
261.951	2.37
262.323	2.45
262.695	2.39
263.067	2.29
263.439	2.27
263.811	2.28
264.183	2.22
264.555	2.22
264.927	2.29
265.298	2.31
265.67	2.27
266.042	2.23
266.413	2.17
266.785	2.16
267.156	2.13
267.528	2.04
267.899	1.93
268.271	1.81
268.642	1.83
269.013	1.89
269.385	1.82
269.756	1.82
270.127	1.86
270.498	1.94
270.87	1.87
271.241	1.86
271.612	1.84
271.983	1.9
272.354	1.92
272.724	1.91
273.095	1.91
273.466	1.96
273.837	1.91
274.208	1.92
274.578	1.9
274.949	1.98
275.32	1.99
275.69	2.01
276.061	2.09
276.431	2.17
276.802	2.21
277.172	2.3
277.542	2.33
277.913	2.26
278.283	2.17
278.653	2.16
279.023	2.11
279.394	1.96
279.764	1.93
280.134	1.89
280.504	1.85
280.874	1.72
281.244	1.63
281.614	1.53
281.983	1.46
282.353	1.44
282.723	1.38
283.093	1.39
283.462	1.3
283.832	1.25
284.202	1.23
284.571	1.21
284.941	1.19
285.31	1.09
285.68	1
286.049	0.94
286.418	0.92
286.788	1.06
287.157	1.06
287.526	1.06
287.895	1.07
288.264	1.15
288.633	1.26
289.002	1.16
289.371	1.22
289.74	1.16
290.109	1.14
290.478	1.16
290.847	1.28
291.216	1.26
291.585	1.14
291.953	1.14
292.322	1.11
292.691	1.06
293.059	1.08
293.428	1.04
293.796	1.05
294.165	1.06
294.533	1.08
294.901	1.17
295.27	1.18
295.638	1.16
296.006	0.99
296.374	1.02
296.743	1.02
297.111	1.08
297.479	1.03
297.847	0.98
298.215	1.04
298.583	0.96
298.95	0.94
299.318	1.05
299.686	1.05
300.054	1.05
300.422	1.13
300.789	1.24
301.157	1.18
301.525	1.17
301.892	1.15
302.26	1.15
302.627	1.15
302.994	1.11
303.362	1.1
303.729	1.06
304.097	1.03
304.464	1.04
304.831	1
305.198	0.99
305.565	0.91
305.932	0.94
306.299	0.88
306.666	0.88
307.033	0.91
307.4	0.97
307.767	0.94
308.134	0.99
308.501	0.91
308.867	0.9
309.234	0.83
309.601	0.79
309.967	0.71
310.334	0.75
310.701	0.77
311.067	0.84
311.433	0.83
311.8	0.83
312.166	0.84
312.533	0.86
312.899	0.81
313.265	0.78
313.631	0.84
313.997	0.82
314.363	0.78
314.729	0.79
315.096	0.72
315.461	0.7
315.827	0.68
316.193	0.73
316.559	0.72
316.925	0.79
317.291	0.77
317.656	0.8
318.022	0.86
318.388	1
318.753	1.04
319.119	1.11
319.484	1.13
319.85	1.15
320.215	1.14
320.581	1.12
320.946	1.04
321.311	1.11
321.676	1.09
322.042	1.16
322.407	1.17
322.772	1.14
323.137	1.18
323.502	1.24
323.867	1.17
324.232	1.22
324.597	1.18
324.962	1.17
325.327	1.1
325.691	1.05
326.056	1
326.421	1.01
326.785	1.03
327.15	1.04
327.514	0.95
327.879	0.89
328.243	0.87
328.608	0.84
328.972	0.81
329.337	0.71
329.701	0.68
330.065	0.72
330.429	0.63
330.794	0.66
331.158	0.69
331.522	0.68
331.886	0.64
332.25	0.62
332.614	0.56
332.978	0.63
333.342	0.62
333.705	0.74
334.069	0.79
334.433	0.85
334.797	0.82
335.16	0.78
335.524	0.77
335.887	0.83
336.251	0.78
336.614	0.73
336.978	0.74
337.341	0.74
337.705	0.74
338.068	0.95
338.431	1.01
338.794	1.01
339.158	0.93
339.521	0.96
339.884	0.91
340.247	0.87
340.61	0.85
340.973	0.86
341.336	0.87
341.699	0.86
342.062	0.85
342.424	0.87
342.787	0.8
343.15	0.74
343.512	0.58
343.875	0.65
344.238	0.74
344.6	0.72
344.963	0.64
345.325	0.65
345.688	0.57
346.05	0.56
346.412	0.53
346.775	0.51
347.137	0.34
347.499	0.36
347.861	0.36
348.223	0.36
348.585	0.29
348.947	0.24
349.309	0.23
349.671	0.25
350.033	0.3
350.395	0.28
350.757	0.34
351.118	0.36
351.48	0.28
351.842	0.26
352.203	0.25
352.565	0.35
352.927	0.27
353.288	0.26
353.65	0.31
354.011	0.3
354.372	0.23
354.734	0.28
355.095	0.28
355.456	0.3
355.817	0.31
356.179	0.23
356.54	0.23
356.901	0.31
357.262	0.38
357.623	0.37
357.984	0.49
358.345	0.46
358.705	0.44
359.066	0.45
359.427	0.44
359.788	0.39
360.148	0.39
360.509	0.46
360.87	0.47
361.23	0.55
361.591	0.63
361.951	0.61
362.312	0.54
362.672	0.54
363.032	0.51
363.393	0.59
363.753	0.61
364.113	0.65
364.473	0.76
364.833	0.75
365.193	0.74
365.553	0.72
365.913	0.74
366.273	0.79
366.633	0.87
366.993	0.71
367.353	0.76
367.713	0.69
368.072	0.62
368.432	0.62
368.792	0.68
369.151	0.67
369.511	0.73
369.87	0.8
370.23	0.76
370.589	0.59
370.949	0.57
371.308	0.64
371.667	0.57
372.027	0.57
372.386	0.57
372.745	0.58
373.104	0.6
373.463	0.51
373.822	0.48
374.181	0.54
374.54	0.6
374.899	0.54
375.258	0.47
375.617	0.4
375.975	0.49
376.334	0.38
376.693	0.43
377.052	0.46
377.41	0.47
377.769	0.42
378.127	0.41
378.486	0.24
378.844	0.18
379.202	0.15
379.561	0.13
379.919	0.25
380.277	0.18
380.636	0.25
380.994	0.3
381.352	0.27
381.71	0.31
382.068	0.28
382.426	0.21
382.784	0.28
383.142	0.23
383.5	0.21
383.857	0.24
384.215	0.24
384.573	0.3
384.931	0.32
385.288	0.29
385.646	0.18
386.003	0.24
386.361	0.32
386.718	0.41
387.076	0.52
387.433	0.57
387.791	0.58
388.148	0.62
388.505	0.69
388.862	0.59
389.22	0.68
389.577	0.66
389.934	0.66
390.291	0.75
390.648	0.67
391.005	0.61
391.362	0.65
391.718	0.63
392.075	0.53
392.432	0.52
392.789	0.47
393.145	0.56
393.502	0.51
393.859	0.59
394.215	0.61
394.572	0.68
394.928	0.55
395.285	0.45
395.641	0.43
395.997	0.33
396.354	0.39
396.71	0.43
397.066	0.5
397.422	0.58
397.778	0.62
398.134	0.55
398.491	0.63
398.846	0.61
399.202	0.52
399.558	0.48
399.914	0.49
400.27	0.46
400.626	0.46
400.981	0.55
401.337	0.55
401.693	0.66
402.048	0.61
402.404	0.65
402.759	0.55
403.115	0.69
403.47	0.69
403.826	0.76
404.181	0.65
404.536	0.56
404.892	0.61
405.247	0.62
405.602	0.63
405.957	0.52
406.312	0.46
406.667	0.41
407.022	0.38
407.377	0.36
407.732	0.33
408.087	0.3
408.442	0.4
408.796	0.38
409.151	0.44
409.506	0.41
409.86	0.47
410.215	0.36
410.57	0.27
410.924	0.28
411.279	0.2
411.633	0.27
411.987	0.16
412.342	0.21
412.696	0.16
413.05	0.24
413.404	0.18
413.758	0.37
414.113	0.3
414.467	0.24
414.821	0.23
415.175	0.29
415.529	0.32
415.882	0.32
416.236	0.2
416.59	0.23
416.944	0.34
417.298	0.46
417.651	0.5
418.005	0.44
418.358	0.47
418.712	0.53
419.065	0.49
419.419	0.54
419.772	0.61
420.126	0.76
420.479	0.65
420.832	0.77
421.185	0.81
421.539	0.85
421.892	0.9
422.245	1.07
422.598	0.85
422.951	0.9
423.304	1.02
423.657	1.16
424.01	0.99
424.363	1.08
424.715	1.2
425.068	1.27
425.421	1.19
425.773	1.1
426.126	1.1
426.479	1.14
426.831	1.26
427.184	1.29
427.536	1.21
427.889	1.33
428.241	1.32
428.593	1.27
428.945	1.22
429.298	1.32
429.65	1.25
430.002	1.29
430.354	1.29
430.706	1.29
431.058	1.28
431.41	1.29
431.762	1.37
432.114	1.24
432.466	1.11
432.817	1.2
433.169	1.11
433.521	1.14
433.872	1.24
434.224	1.33
434.576	1.43
434.927	1.32
435.279	1.34
435.63	1.29
435.981	1.26
436.333	1.27
436.684	1.24
437.035	1.15
437.387	1.19
437.738	1.18
438.089	1.17
438.44	1.14
438.791	1.09
439.142	1.16
439.493	1.19
439.844	1.21
440.195	1.19
440.545	1.18
440.896	1.26
441.247	1.22
441.598	1.32
441.948	1.35
442.299	1.24
442.649	1.07
443	1.14
443.35	1.08
443.701	0.98
444.051	1.06
444.401	1.13
444.752	1.15
445.102	1.19
445.452	1.29
445.802	1.31
446.152	1.31
446.502	1.4
446.852	1.41
447.202	1.43
447.552	1.5
447.902	1.51
448.252	1.47
448.602	2.96
448.952	3.03
449.301	3.01
449.651	3.03
450.001	3.16
450.35	3.18
450.7	3.18
451.049	3.15
451.399	3.27
451.748	3.33
452.097	3.45
452.447	3.54
452.796	3.45
453.145	3.39
453.494	3.38
453.843	3.32
454.193	3.37
454.542	3.46
454.891	3.42
455.239	3.31
455.588	3.24
455.937	3.31
456.286	3.36
456.635	3.34
456.984	3.36
457.332	1.5
457.681	1.37
458.03	1.36
458.378	1.36
458.727	1.34
459.075	1.32
459.423	1.43
459.772	1.53
460.12	1.59
460.468	1.62
460.817	1.54
461.165	1.55
461.513	1.6
461.861	1.75
462.209	1.81
462.557	1.84
462.905	1.67
463.253	1.67
463.601	1.78
463.949	1.74
464.297	1.85
464.644	1.98
464.992	1.99
465.34	1.96
465.687	2.02
466.035	2.14
466.383	2.25
466.73	2.19
467.078	2.04
467.425	2.06
467.772	2.09
468.12	2.02
468.467	2.01
468.814	2.07
469.161	2.03
469.508	1.96
469.856	1.95
470.203	1.79
470.55	1.55
470.897	1.57
471.243	1.56
471.59	1.59
471.937	1.6
472.284	1.6
472.631	1.69
472.977	1.67
473.324	1.64
473.671	1.58
474.017	1.55
474.364	1.59
474.71	1.62
475.057	1.69
475.403	1.75
475.749	1.86
476.096	1.86
476.442	1.91
476.788	1.98
477.134	1.99
477.48	1.9
477.826	1.86
478.172	1.97
478.518	1.96
478.864	2.06
479.21	2.18
479.556	2.08
479.902	2.04
480.248	2.08
480.593	2.05
480.939	2.01
481.285	1.97
481.63	1.93
481.976	1.91
482.321	1.9
482.667	2.02
483.012	2.03
483.357	1.99
483.703	2.02
484.048	2.12
484.393	2.21
484.738	2.22
485.084	2.2
485.429	2.22
485.774	2.39
486.119	2.5
486.464	2.65
486.808	2.72
487.153	2.9
487.498	3.05
487.843	3.11
488.188	3.29
488.532	3.47
488.877	3.68
489.222	3.94
489.566	4.12
489.911	4.4
490.255	4.73
490.6	5.04
490.944	5.27
491.288	5.51
491.633	5.8
491.977	6.23
492.321	6.65
492.665	6.9
493.009	7.2
493.353	7.66
493.697	8.14
494.041	8.7
494.385	9.15
494.729	9.62
495.073	10.1
495.417	10.64
495.76	11.1
496.104	11.62
496.448	12.16
496.791	12.87
497.135	13.52
497.479	14.13
497.822	14.78
498.165	15.55
498.509	16.3
498.852	16.98
499.196	17.64
499.539	18.55
499.882	19.28
500.225	20.18
500.568	20.89
500.911	21.56
501.254	22.34
501.597	23.19
501.94	23.9
502.283	24.55
502.626	25.2
502.969	25.8
503.312	26.52
503.654	27.28
503.997	27.97
504.34	28.85
504.682	29.7
505.025	30.57
505.367	31.17
505.71	31.81
506.052	32.63
506.395	33.31
506.737	33.97
507.079	34.73
507.421	35.53
507.764	36.3
508.106	36.89
508.448	37.57
508.79	38.12
509.132	38.85
509.474	39.5
509.816	40.05
510.158	40.56
510.499	41.17
510.841	41.75
511.183	42.31
511.525	42.92
511.866	43.45
512.208	43.99
512.549	44.51
512.891	44.95
513.232	45.39
513.574	45.95
513.915	46.44
514.256	47.1
514.598	47.48
514.939	48.04
515.28	48.57
515.621	48.85
515.962	49.13
516.303	49.57
516.644	49.83
516.985	50.32
517.326	50.63
517.667	50.83
518.008	51
518.349	51.39
518.69	51.86
519.03	51.97
519.371	52.35
519.712	52.63
520.052	52.89
520.393	53.28
520.733	53.59
521.074	53.93
521.414	54.33
521.754	54.59
522.095	54.83
522.435	55.18
522.775	55.47
523.115	55.77
523.455	55.86
523.795	55.88
524.135	56.15
524.475	56.49
524.815	56.73
525.155	57
525.495	57.02
525.835	57.24
526.175	57.47
526.514	57.89
526.854	58.13
527.194	58.4
527.533	58.81
527.873	59.15
528.212	59.51
528.552	59.83
528.891	59.94
529.23	60.17
529.57	60.25
529.909	60.32
530.248	60.47
530.587	60.63
530.927	60.77
531.266	60.94
531.605	61.05
531.944	61.38
532.283	61.77
532.621	61.87
532.96	62.11
533.299	62.2
533.638	62.61
533.977	62.97
534.315	63.05
534.654	63.29
534.992	63.32
535.331	63.3
535.67	63.11
536.008	63.32
536.346	63.25
536.685	63.15
537.023	63.19
537.361	63.47
537.7	63.47
538.038	63.69
538.376	63.8
538.714	63.97
539.052	64.02
539.39	64.16
539.728	64.2
540.066	64.55
540.404	64.4
540.741	64.34
541.079	64.53
541.417	64.4
541.755	64.4
542.092	64.42
542.43	64.25
542.767	64.31
543.105	64.3
543.442	64.31
543.78	64.69
544.117	65
544.454	64.92
544.792	65.14
545.129	65.3
545.466	65.48
545.803	65.56
546.14	65.53
546.477	65.47
546.814	65.62
547.151	65.42
547.488	65.39
547.825	65.34
548.162	65.35
548.499	65.34
548.835	65.53
549.172	65.65
549.509	65.63
549.845	65.66
550.182	65.69
550.518	65.62
550.855	65.81
551.191	65.99
551.528	65.91
551.864	66.07
552.2	65.72
552.537	65.78
552.873	65.98
553.209	65.98
553.545	66.09
553.881	66.09
554.217	66.06
554.553	66.28
554.889	66.42
555.225	66.27
555.561	66.61
555.896	66.62
556.232	66.62
556.568	66.52
556.903	66.38
557.239	66.3
557.575	66.28
557.91	66.34
558.245	66.65
558.581	66.85
558.916	66.93
559.252	66.81
559.587	66.72
559.922	66.95
560.257	67.11
560.592	67.36
560.928	67.32
561.263	67.41
561.598	67.52
561.933	67.35
562.267	67.51
562.602	67.49
562.937	67.56
563.272	67.76
563.607	68.03
563.941	68.07
564.276	68.32
564.611	68.73
564.945	68.95
565.28	68.96
565.614	69.04
565.949	68.96
566.283	69.15
566.617	69.07
566.951	69.12
567.286	69.29
567.62	69.4
567.954	69.61
568.288	69.72
568.622	69.53
568.956	69.53
569.29	69.52
569.624	69.57
569.958	69.66
570.292	69.74
570.626	69.63
570.959	69.66
571.293	69.85
571.627	69.96
571.96	69.77
572.294	69.7
572.627	69.62
572.961	69.41
573.294	69.42
573.627	69.49
573.961	69.48
574.294	69.79
574.627	69.92
574.961	69.93
575.294	70.03
575.627	69.81
575.96	69.93
576.293	69.92
576.626	69.82
576.959	69.93
577.292	70.02
577.624	70
577.957	70.07
578.29	70.15
578.623	70.17
578.955	70.25
579.288	70.31
579.62	70.24
579.953	70.15
580.285	70.28
580.618	70.32
580.95	70.61
581.282	70.83
581.615	70.93
581.947	70.89
582.279	71.02
582.611	70.92
582.943	70.78
583.275	70.79
583.607	70.77
583.939	70.89
584.271	70.81
584.603	70.94
584.935	71.04
585.267	71.02
585.598	71.03
585.93	71.34
586.262	71.38
586.593	71.31
586.925	71.11
587.256	71.1
587.588	71.04
587.919	71.08
588.25	71.1
588.582	71.13
588.913	71.35
589.244	71.11
589.575	71.12
589.907	71.12
590.238	71.31
590.569	71.42
590.9	71.47
591.231	71.44
591.562	71.57
591.892	71.6
592.223	71.68
592.554	71.73
592.885	71.62
593.215	71.43
593.546	71.43
593.877	71.2
594.207	71.05
594.538	70.93
594.868	70.84
595.198	71.24
595.529	71.33
595.859	71.36
596.189	71.37
596.52	71.5
596.85	71.64
597.18	71.54
597.51	71.5
597.84	71.39
598.17	71.45
598.5	71.5
598.83	71.39
599.16	71.3
599.489	71.37
599.819	71.45
600.149	71.43
600.479	71.39
600.808	71.38
601.138	71.31
601.467	71.44
601.797	71.63
602.126	71.82
602.456	71.91
602.785	71.97
603.114	71.88
603.443	71.87
603.773	71.94
604.102	72.04
604.431	72.04
604.76	71.83
605.089	71.78
605.418	71.91
605.747	71.87
606.076	71.85
606.405	71.65
606.733	71.77
607.062	71.86
607.391	71.89
607.72	71.77
608.048	71.66
608.377	71.55
608.705	71.71
609.034	71.58
609.362	71.58
609.69	71.46
610.019	71.35
610.347	71.42
610.675	71.21
611.004	71.25
611.332	71.54
611.66	71.54
611.988	71.31
612.316	71.26
612.644	71.07
612.972	71.05
613.3	70.76
613.627	70.42
613.955	70.54
614.283	70.49
614.611	70.71
614.938	70.49
615.266	70.18
615.593	70.08
615.921	70.04
616.248	69.95
616.576	69.9
616.903	69.81
617.23	69.84
617.558	69.92
617.885	70.25
618.212	70.19
618.539	69.82
618.866	70.04
619.193	69.84
619.52	69.87
619.847	69.66
620.174	69.74
620.501	69.65
620.828	69.25
621.155	69.32
621.481	69.53
621.808	69.81
622.135	69.73
622.461	70.13
622.788	69.96
623.114	69.98
623.441	70.26
623.767	70.32
624.093	70.45
624.42	70.29
624.746	70.9
625.072	70.97
625.398	71.07
625.725	71.15
626.051	71.1
626.377	71.22
626.703	71.31
627.029	71.06
627.354	71.13
627.68	70.81
628.006	70.48
628.332	70.07
628.658	70.27
628.983	71.3
629.309	71.99
629.634	72.11
629.96	71.97
630.285	72.23
630.611	71.85
630.936	72.06
631.262	71.83
631.587	72.16
631.912	72.18
632.237	72.51
632.562	72.75
632.887	72.1
633.213	71.5
633.538	71.74
633.863	71.43
634.187	71.88
634.512	71.36
634.837	71.18
635.162	71.29
635.487	71.33
635.811	70.86
636.136	71.89
636.461	72.34
636.785	71.59
637.11	71.25
637.434	70.58
637.758	70.49
638.083	70.67
638.407	70.97
638.731	71.39
639.056	71
639.38	70.75
639.704	71.12
640.028	71.54
640.352	71.01
640.676	70.7
641	70.74
641.324	71.43
641.648	71.24
641.972	71.07
642.295	70.75
642.619	71.45
642.943	71.75
643.266	71.3
643.59	71.14
643.913	71.75
644.237	70.67
644.56	70.4
644.884	70.78
645.207	71.15
645.53	71.31
645.854	71.85
646.177	71.96
646.5	71.79
646.823	71.65
647.146	71.81
647.469	72.28
647.792	71.77
648.115	71.9
648.438	73.08
648.761	74.67
649.084	74.41
649.406	73.58
649.729	72.22
650.052	71.93
650.374	71.78
650.697	71.9
651.019	72
651.342	72.07
651.664	72.19
651.987	72.01
652.309	72.2
652.631	72.38
652.953	72.37
653.276	72.2
653.598	72.17
653.92	72.05
654.242	72.17
654.564	72.18
654.886	72.2
655.208	72.21
655.53	72.07
655.851	71.98
656.173	71.8
656.495	71.58
656.816	71
657.138	70.51
657.46	70.2
657.781	71.68
658.103	72.21
658.424	73.03
658.746	72.41
659.067	72.85
659.388	72.79
659.709	72.68
660.031	73.31
660.352	73.13
660.673	72.69
660.994	72.42
661.315	72.73
661.636	72.56
661.957	72.56
662.278	71.32
662.599	70.93
662.919	70.22
663.24	69.66
663.561	69.39
663.881	69.51
664.202	69.79
664.523	69.45
664.843	68.95
