Data from T1_Reflection__95__18-06-22-596.txt Node

Date: Wed Jun 02 18:06:22 CEST 2021
User: mabdelazizm
Spectrometer: FLMS18565
Trigger mode: 0
Integration Time (sec): 2.000000E0
Scans to average: 1
Electric dark correction enabled: true
Nonlinearity correction enabled: false
Boxcar width: 12
XAxis mode: Wavelengths
Number of Pixels in Spectrum: 2048
>>>>>Begin Spectral Data<<<<<
179.071	-132.04
179.452	-421.49
179.833	-1739.39
180.214	-42.86
180.595	684.85
180.977	-19.01
181.358	-182.44
181.739	-13.33
182.12	89.87
182.501	56.48
182.882	19.21
183.262	11.04
183.643	-122.43
184.024	112.77
184.405	65.78
184.786	52.68
185.166	51.81
185.547	46.23
185.927	38.7
186.308	38.19
186.689	42.09
187.069	37.96
187.449	37.43
187.83	31.71
188.21	21.27
188.59	17.39
188.971	15.77
189.351	18.63
189.731	18.04
190.111	17.84
190.491	14.68
190.871	11.98
191.251	14.55
191.631	15.87
192.011	14.32
192.391	14.68
192.771	15.62
193.151	15.13
193.531	12.75
193.91	12.5
194.29	13.27
194.67	11.66
195.049	10.56
195.429	11.38
195.808	9.41
196.188	7.39
196.567	7.64
196.946	6.07
197.326	6.15
197.705	6.84
198.084	7.28
198.464	7.09
198.843	6.82
199.222	8.19
199.601	7.7
199.98	8.46
200.359	8.99
200.738	8.8
201.117	8.28
201.496	8.75
201.875	8.78
202.254	7.31
202.632	6.33
203.011	5.9
203.39	6.01
203.768	5.58
204.147	5.81
204.525	5.46
204.904	4.23
205.282	5.03
205.661	4.77
206.039	5.27
206.418	5.03
206.796	5.87
207.174	6.74
207.552	7.55
207.931	7.57
208.309	7.54
208.687	7.35
209.065	7.58
209.443	7.46
209.821	7.58
210.199	6.94
210.577	6.8
210.954	6.2
211.332	5.19
211.71	5.84
212.088	6.32
212.465	6.48
212.843	5.9
213.221	6.13
213.598	6.04
213.976	5.89
214.353	6.04
214.731	5.2
215.108	5.43
215.485	5.12
215.863	4.67
216.24	4.17
216.617	4.34
216.994	3.25
217.371	3.69
217.749	3.11
218.126	2.92
218.503	2.99
218.88	2.98
219.256	2.69
219.633	2.83
220.01	3.47
220.387	3.59
220.764	3.62
221.14	3.44
221.517	3.32
221.894	3.17
222.27	3.31
222.647	3.15
223.023	3.05
223.4	3.09
223.776	3.15
224.153	3.4
224.529	3.46
224.905	3.77
225.282	3.8
225.658	3.57
226.034	3.08
226.41	3.51
226.786	3.33
227.162	3.44
227.538	3.55
227.914	3.42
228.29	3.33
228.666	3.08
229.042	2.94
229.418	2.54
229.793	2.66
230.169	2.48
230.545	2.32
230.92	2
231.296	1.86
231.672	1.96
232.047	1.8
232.422	1.73
232.798	1.53
233.173	1.61
233.549	1.65
233.924	1.47
234.299	1.34
234.674	1.32
235.05	1.2
235.425	1.16
235.8	1.02
236.175	0.96
236.55	0.88
236.925	0.63
237.3	0.66
237.675	0.67
238.049	0.83
238.424	0.85
238.799	0.9
239.174	0.86
239.548	0.95
239.923	0.89
240.297	1.03
240.672	1.14
241.046	1.07
241.421	1.01
241.795	0.99
242.17	1.08
242.544	0.99
242.918	0.8
243.293	0.72
243.667	0.66
244.041	0.69
244.415	0.71
244.789	0.88
245.163	0.83
245.537	0.78
245.911	0.75
246.285	0.85
246.659	0.79
247.033	0.84
247.406	0.8
247.78	0.77
248.154	0.78
248.528	0.77
248.901	0.66
249.275	0.69
249.648	0.69
250.022	0.59
250.395	0.67
250.769	0.75
251.142	0.74
251.515	0.75
251.888	0.8
252.262	0.91
252.635	1.02
253.008	1.02
253.381	1.03
253.754	1.15
254.127	1.06
254.5	1.15
254.873	1.17
255.246	1.25
255.619	1.19
255.992	1.18
256.364	1.15
256.737	1.16
257.11	1.24
257.483	1.25
257.855	1.24
258.228	1.38
258.6	1.42
258.973	1.48
259.345	1.53
259.718	1.46
260.09	1.41
260.462	1.44
260.834	1.42
261.207	1.36
261.579	1.34
261.951	1.24
262.323	1.23
262.695	1.18
263.067	1.08
263.439	1.04
263.811	1
264.183	0.99
264.555	1
264.927	1.04
265.298	1.02
265.67	0.98
266.042	0.94
266.413	0.85
266.785	0.81
267.156	0.78
267.528	0.67
267.899	0.64
268.271	0.53
268.642	0.51
269.013	0.51
269.385	0.48
269.756	0.42
270.127	0.41
270.498	0.52
270.87	0.54
271.241	0.58
271.612	0.59
271.983	0.7
272.354	0.68
272.724	0.79
273.095	0.85
273.466	0.91
273.837	0.89
274.208	0.91
274.578	0.86
274.949	0.87
275.32	0.83
275.69	0.87
276.061	0.99
276.431	1
276.802	1.01
277.172	1.03
277.542	1.04
277.913	1.05
278.283	1.05
278.653	1.09
279.023	1.16
279.394	1.12
279.764	1.06
280.134	1.03
280.504	1
280.874	0.94
281.244	0.83
281.614	0.82
281.983	0.7
282.353	0.69
282.723	0.67
283.093	0.65
283.462	0.62
283.832	0.72
284.202	0.76
284.571	0.83
284.941	0.81
285.31	0.76
285.68	0.82
286.049	0.81
286.418	0.84
286.788	0.94
287.157	0.94
287.526	0.91
287.895	0.89
288.264	0.88
288.633	0.95
289.002	0.93
289.371	0.94
289.74	0.9
290.109	0.93
290.478	0.92
290.847	1.02
291.216	1
291.585	0.88
291.953	0.81
292.322	0.86
292.691	0.86
293.059	0.8
293.428	0.78
293.796	0.75
294.165	0.77
294.533	0.74
294.901	0.7
295.27	0.75
295.638	0.76
296.006	0.64
296.374	0.61
296.743	0.63
297.111	0.67
297.479	0.71
297.847	0.73
298.215	0.74
298.583	0.7
298.95	0.72
299.318	0.71
299.686	0.73
300.054	0.7
300.422	0.78
300.789	0.84
301.157	0.83
301.525	0.82
301.892	0.73
302.26	0.69
302.627	0.63
302.994	0.59
303.362	0.51
303.729	0.5
304.097	0.53
304.464	0.51
304.831	0.51
305.198	0.48
305.565	0.47
305.932	0.42
306.299	0.38
306.666	0.27
307.033	0.17
307.4	0.22
307.767	0.26
308.134	0.29
308.501	0.33
308.867	0.3
309.234	0.23
309.601	0.19
309.967	0.14
310.334	0.26
310.701	0.26
311.067	0.35
311.433	0.41
311.8	0.52
312.166	0.61
312.533	0.71
312.899	0.64
313.265	0.59
313.631	0.63
313.997	0.56
314.363	0.59
314.729	0.59
315.096	0.59
315.461	0.62
315.827	0.67
316.193	0.77
316.559	0.71
316.925	0.68
317.291	0.68
317.656	0.64
318.022	0.67
318.388	0.71
318.753	0.74
319.119	0.78
319.484	0.74
319.85	0.73
320.215	0.81
320.581	0.77
320.946	0.69
321.311	0.7
321.676	0.63
322.042	0.7
322.407	0.71
322.772	0.66
323.137	0.75
323.502	0.8
323.867	0.77
324.232	0.83
324.597	0.77
324.962	0.76
325.327	0.74
325.691	0.76
326.056	0.74
326.421	0.76
326.785	0.77
327.15	0.79
327.514	0.82
327.879	0.76
328.243	0.73
328.608	0.73
328.972	0.65
329.337	0.5
329.701	0.52
330.065	0.51
330.429	0.49
330.794	0.52
331.158	0.52
331.522	0.53
331.886	0.57
332.25	0.52
332.614	0.4
332.978	0.46
333.342	0.38
333.705	0.47
334.069	0.51
334.433	0.51
334.797	0.54
335.16	0.54
335.524	0.51
335.887	0.56
336.251	0.45
336.614	0.37
336.978	0.41
337.341	0.36
337.705	0.34
338.068	0.54
338.431	0.58
338.794	0.56
339.158	0.53
339.521	0.46
339.884	0.42
340.247	0.47
340.61	0.43
340.973	0.33
341.336	0.31
341.699	0.32
342.062	0.32
342.424	0.39
342.787	0.22
343.15	0.18
343.512	0.04
343.875	-0.01
344.238	0.03
344.6	0.03
344.963	0
345.325	0.08
345.688	0.09
346.05	0.11
346.412	0.13
346.775	0.14
347.137	0.02
347.499	0.01
347.861	0.06
348.223	-0
348.585	-0
348.947	-0.04
349.309	-0.17
349.671	-0.18
350.033	-0.04
350.395	-0.06
350.757	0.01
351.118	-0.04
351.48	-0.05
351.842	0.05
352.203	-0.01
352.565	0.07
352.927	0.04
353.288	0.04
353.65	0.11
354.011	0.13
354.372	0.17
354.734	0.24
355.095	0.3
355.456	0.31
355.817	0.28
356.179	0.31
356.54	0.31
356.901	0.37
357.262	0.49
357.623	0.51
357.984	0.57
358.345	0.63
358.705	0.62
359.066	0.5
359.427	0.5
359.788	0.41
360.148	0.47
360.509	0.45
360.87	0.45
361.23	0.54
361.591	0.62
361.951	0.64
362.312	0.66
362.672	0.65
363.032	0.57
363.393	0.54
363.753	0.55
364.113	0.46
364.473	0.47
364.833	0.45
365.193	0.35
365.553	0.33
365.913	0.25
366.273	0.3
366.633	0.34
366.993	0.31
367.353	0.34
367.713	0.37
368.072	0.38
368.432	0.44
368.792	0.44
369.151	0.48
369.511	0.44
369.87	0.52
370.23	0.44
370.589	0.34
370.949	0.33
371.308	0.38
371.667	0.33
372.027	0.32
372.386	0.35
372.745	0.33
373.104	0.28
373.463	0.26
373.822	0.32
374.181	0.38
374.54	0.39
374.899	0.39
375.258	0.32
375.617	0.26
375.975	0.21
376.334	0.08
376.693	0.04
377.052	0.09
377.41	0.07
377.769	0.1
378.127	-0
378.486	0.02
378.844	-0.03
379.202	-0.01
379.561	-0.03
379.919	0.02
380.277	-0.22
380.636	-0.22
380.994	-0.14
381.352	-0.18
381.71	-0.16
382.068	-0.07
382.426	-0.08
382.784	-0.08
383.142	-0.09
383.5	-0.06
383.857	0.03
384.215	0.01
384.573	0.03
384.931	0.1
385.288	0.09
385.646	0.05
386.003	0.08
386.361	0.13
386.718	0.22
387.076	0.28
387.433	0.25
387.791	0.29
388.148	0.23
388.505	0.21
388.862	0.14
389.22	0.32
389.577	0.3
389.934	0.35
390.291	0.45
390.648	0.43
391.005	0.41
391.362	0.45
391.718	0.41
392.075	0.35
392.432	0.34
392.789	0.27
393.145	0.29
393.502	0.29
393.859	0.39
394.215	0.41
394.572	0.42
394.928	0.34
395.285	0.3
395.641	0.31
395.997	0.32
396.354	0.39
396.71	0.43
397.066	0.57
397.422	0.67
397.778	0.75
398.134	0.68
398.491	0.78
398.846	0.79
399.202	0.74
399.558	0.75
399.914	0.75
400.27	0.73
400.626	0.81
400.981	0.88
401.337	0.87
401.693	0.99
402.048	1.05
402.404	1.09
402.759	0.99
403.115	1.1
403.47	1.22
403.826	1.3
404.181	1.27
404.536	1.2
404.892	1.25
405.247	1.26
405.602	1.24
405.957	1.13
406.312	1.13
406.667	1.06
407.022	1.15
407.377	1.18
407.732	1.22
408.087	1.27
408.442	1.31
408.796	1.24
409.151	1.31
409.506	1.29
409.86	1.38
410.215	1.41
410.57	1.36
410.924	1.36
411.279	1.32
411.633	1.45
411.987	1.49
412.342	1.41
412.696	1.4
413.05	1.49
413.404	1.49
413.758	1.65
414.113	1.71
414.467	1.74
414.821	1.88
415.175	1.91
415.529	2.06
415.882	1.99
416.236	1.9
416.59	1.9
416.944	1.91
417.298	2.06
417.651	2.19
418.005	2.25
418.358	2.34
418.712	2.34
419.065	2.32
419.419	2.4
419.772	2.35
420.126	2.43
420.479	2.49
420.832	2.6
421.185	2.75
421.539	2.72
421.892	2.73
422.245	2.81
422.598	2.69
422.951	2.7
423.304	2.83
423.657	2.91
424.01	3.01
424.363	3.1
424.715	3.19
425.068	3.28
425.421	3.31
425.773	3.32
426.126	3.32
426.479	3.35
426.831	3.42
427.184	3.41
427.536	3.5
427.889	3.61
428.241	3.62
428.593	3.76
428.945	3.86
429.298	3.83
429.65	3.81
430.002	3.9
430.354	4.04
430.706	3.99
431.058	4.12
431.41	4.29
431.762	4.38
432.114	4.29
432.466	4.21
432.817	4.14
433.169	4
433.521	4.19
433.872	4.23
434.224	4.24
434.576	4.32
434.927	4.2
435.279	4.3
435.63	4.21
435.981	4.23
436.333	4.2
436.684	4.18
437.035	4.08
437.387	4.04
437.738	3.95
438.089	3.88
438.44	3.94
438.791	3.85
439.142	3.92
439.493	3.97
439.844	3.97
440.195	3.77
440.545	3.7
440.896	3.72
441.247	3.76
441.598	3.8
441.948	3.85
442.299	3.67
442.649	3.61
443	3.61
443.35	3.51
443.701	3.5
444.051	3.4
444.401	3.54
444.752	3.35
445.102	3.3
445.452	3.31
445.802	3.32
446.152	3.32
446.502	3.49
446.852	3.59
447.202	3.47
447.552	3.49
447.902	3.45
448.252	3.5
448.602	5.09
448.952	5.29
449.301	5.24
449.651	5.2
450.001	5.26
450.35	5.31
450.7	5.29
451.049	5.37
451.399	5.53
451.748	5.6
452.097	5.73
452.447	5.87
452.796	5.92
453.145	5.81
453.494	6.01
453.843	6.07
454.193	6.18
454.542	6.34
454.891	6.43
455.239	6.35
455.588	6.38
455.937	6.57
456.286	6.67
456.635	6.73
456.984	6.84
457.332	5.08
457.681	4.96
458.03	5.04
458.378	5.19
458.727	5.4
459.075	5.61
459.423	5.8
459.772	5.94
460.12	5.95
460.468	5.99
460.817	6.05
461.165	6.11
461.513	6.2
461.861	6.45
462.209	6.57
462.557	6.61
462.905	6.57
463.253	6.63
463.601	6.72
463.949	6.81
464.297	6.88
464.644	6.87
464.992	6.88
465.34	6.96
465.687	6.9
466.035	6.86
466.383	7
466.73	7.04
467.078	7.07
467.425	6.93
467.772	6.77
468.12	6.7
468.467	6.63
468.814	6.7
469.161	6.51
469.508	6.25
469.856	6.09
470.203	6.02
470.55	5.74
470.897	5.78
471.243	5.7
471.59	5.67
471.937	5.61
472.284	5.55
472.631	5.42
472.977	5.38
473.324	5.34
473.671	5.21
474.017	5.07
474.364	5.03
474.71	4.97
475.057	4.88
475.403	4.89
475.749	4.78
476.096	4.68
476.442	4.66
476.788	4.73
477.134	4.68
477.48	4.55
477.826	4.64
478.172	4.72
478.518	4.76
478.864	4.77
479.21	4.89
479.556	4.79
479.902	4.77
480.248	4.79
480.593	4.78
480.939	4.79
481.285	4.89
481.63	4.86
481.976	4.91
482.321	5.03
482.667	5.23
483.012	5.35
483.357	5.45
483.703	5.59
484.048	5.81
484.393	6.08
484.738	6.29
485.084	6.49
485.429	6.67
485.774	7.05
486.119	7.3
486.464	7.57
486.808	7.92
487.153	8.26
487.498	8.64
487.843	9.05
488.188	9.46
488.532	9.97
488.877	10.5
489.222	11.06
489.566	11.62
489.911	12.23
490.255	12.82
490.6	13.44
490.944	14.07
491.288	14.71
491.633	15.26
491.977	15.87
492.321	16.56
492.665	17.23
493.009	17.93
493.353	18.71
493.697	19.47
494.041	20.31
494.385	20.99
494.729	21.93
495.073	22.89
495.417	23.85
495.76	24.81
496.104	25.72
496.448	26.67
496.791	27.69
497.135	28.67
497.479	29.64
497.822	30.68
498.165	31.78
498.509	32.85
498.852	33.95
499.196	35.16
499.539	36.27
499.882	37.28
500.225	38.63
500.568	39.86
500.911	40.93
501.254	41.95
501.597	42.98
501.94	44.06
502.283	45.14
502.626	46.08
502.969	47.27
503.312	48.14
503.654	49.11
503.997	50.08
504.34	51.08
504.682	52.12
505.025	53.08
505.367	54.05
505.71	54.89
506.052	55.83
506.395	56.55
506.737	57.31
507.079	58.25
507.421	59.19
507.764	60.05
508.106	60.94
508.448	61.79
508.79	62.41
509.132	63.15
509.474	63.93
509.816	64.66
510.158	65.28
510.499	66.06
510.841	66.73
511.183	67.4
511.525	67.94
511.866	68.77
512.208	69.44
512.549	70.13
512.891	70.74
513.232	71.37
513.574	72.03
513.915	72.56
514.256	73.4
514.598	74.02
514.939	74.78
515.28	75.31
515.621	75.69
515.962	76.22
516.303	76.67
516.644	76.88
516.985	77.29
517.326	77.67
517.667	77.88
518.008	78.18
518.349	78.6
518.69	79.09
519.03	79.08
519.371	79.4
519.712	79.77
520.052	79.92
520.393	80.13
520.733	80.41
521.074	80.62
521.414	80.98
521.754	81.17
522.095	81.31
522.435	81.58
522.775	81.68
523.115	81.87
523.455	81.96
523.795	82.17
524.135	82.35
524.475	82.48
524.815	82.56
525.155	82.92
525.495	82.89
525.835	83.05
526.175	83.49
526.514	83.82
526.854	83.99
527.194	84.08
527.533	84.37
527.873	84.68
528.212	84.88
528.552	85.25
528.891	85.45
529.23	85.6
529.57	85.75
529.909	85.65
530.248	85.89
530.587	86.22
530.927	86.4
531.266	86.47
531.605	86.57
531.944	86.65
532.283	86.9
532.621	86.99
532.96	87.28
533.299	87.64
533.638	88.01
533.977	88.46
534.315	88.59
534.654	88.73
534.992	88.99
535.331	88.88
535.67	89.14
536.008	89.56
536.346	89.41
536.685	89.55
537.023	89.42
537.361	89.6
537.7	90.01
538.038	90.17
538.376	90.44
538.714	90.51
539.052	90.4
539.39	90.44
539.728	90.68
540.066	90.97
540.404	91.25
540.741	91.42
541.079	91.69
541.417	91.69
541.755	91.38
542.092	91.33
542.43	91.06
542.767	91.21
543.105	91.15
543.442	90.94
543.78	91.3
544.117	91.28
544.454	91.05
544.792	91.3
545.129	91.23
545.466	91.61
545.803	91.53
546.14	90.98
546.477	90.99
546.814	91.09
547.151	91.05
547.488	91.23
547.825	91.19
548.162	91.05
548.499	90.98
548.835	91.01
549.172	90.99
549.509	90.89
549.845	90.88
550.182	91.03
550.518	90.87
550.855	91.29
551.191	91.29
551.528	91.3
551.864	91.23
552.2	91.31
552.537	91.47
552.873	91.77
553.209	91.84
553.545	91.92
553.881	91.85
554.217	91.98
554.553	92.51
554.889	92.47
555.225	92.29
555.561	92.26
555.896	92.11
556.232	92.05
556.568	92.1
556.903	92.14
557.239	92.01
557.575	92.02
557.91	92.31
558.245	92.42
558.581	92.8
558.916	92.96
559.252	92.8
559.587	92.74
559.922	92.93
560.257	93.38
560.592	93.25
560.928	93.16
561.263	93.37
561.598	93.49
561.933	93.59
562.267	93.63
562.602	93.63
562.937	93.57
563.272	93.88
563.607	94.22
563.941	94.57
564.276	94.65
564.611	95.32
564.945	95.4
565.28	95.28
565.614	95.26
565.949	95.2
566.283	95.2
566.617	95.26
566.951	95.12
567.286	95.16
567.62	95.27
567.954	95.62
568.288	95.77
568.622	95.57
568.956	95.61
569.29	95.67
569.624	95.61
569.958	95.5
570.292	95.48
570.626	95.6
570.959	95.71
571.293	95.77
571.627	95.58
571.96	95.54
572.294	95.27
572.627	95.27
572.961	95.03
573.294	95.12
573.627	95.14
573.961	95.27
574.294	95.52
574.627	95.63
574.961	95.68
575.294	95.73
575.627	95.75
575.96	95.74
576.293	95.66
576.626	95.44
576.959	95.37
577.292	95.43
577.624	95.24
577.957	95.25
578.29	95.49
578.623	95.57
578.955	95.43
579.288	95.36
579.62	95.4
579.953	95.65
580.285	95.59
580.618	95.86
580.95	96.16
581.282	96.24
581.615	96.37
581.947	96.45
582.279	96.37
582.611	96.26
582.943	96.06
583.275	95.94
583.607	95.85
583.939	95.82
584.271	95.87
584.603	95.93
584.935	96.13
585.267	96.35
585.598	96.31
585.93	96.7
586.262	96.68
586.593	96.67
586.925	96.46
587.256	96.46
587.588	96.39
587.919	96.31
588.25	96.14
588.582	96.19
588.913	96.34
589.244	95.94
589.575	96.02
589.907	96
590.238	96.18
590.569	96.35
590.9	96.34
591.231	96.4
591.562	96.52
591.892	96.72
592.223	96.73
592.554	96.77
592.885	96.61
593.215	96.45
593.546	96.27
593.877	96.09
594.207	96.11
594.538	96.1
594.868	95.79
595.198	96.06
595.529	96.15
595.859	96.25
596.189	96.47
596.52	96.47
596.85	96.7
597.18	96.52
597.51	96.7
597.84	96.52
598.17	96.38
598.5	96.35
598.83	96.2
599.16	96.27
599.489	96.21
599.819	96.23
600.149	95.95
600.479	95.97
600.808	95.76
601.138	95.77
601.467	95.62
601.797	95.83
602.126	96.02
602.456	95.85
602.785	96.07
603.114	96.09
603.443	96.03
603.773	96.22
604.102	96.17
604.431	95.9
604.76	95.69
605.089	95.42
605.418	95.32
605.747	95.14
606.076	94.91
606.405	94.99
606.733	95.06
607.062	95.13
607.391	94.96
607.72	94.97
608.048	94.71
608.377	95.12
608.705	95.08
609.034	95.1
609.362	94.98
609.69	95.22
610.019	95.11
610.347	94.97
610.675	95
611.004	94.77
611.332	94.94
611.66	95.01
611.988	94.43
612.316	94.45
612.644	94.55
612.972	94.81
613.3	94.73
613.627	94.67
613.955	94.82
614.283	94.77
614.611	94.73
614.938	94.79
615.266	94.77
615.593	94.85
615.921	94.82
616.248	95.13
616.576	94.74
616.903	94.58
617.23	94.66
617.558	94.82
617.885	94.68
618.212	94.5
618.539	94.58
618.866	94.58
619.193	94.37
619.52	94.14
619.847	93.91
620.174	94.34
620.501	94.67
620.828	94.27
621.155	94.25
621.481	94.14
621.808	94.17
622.135	94.05
622.461	94.97
622.788	94.89
623.114	94.37
623.441	94.32
623.767	94.48
624.093	94.35
624.42	93.96
624.746	94.51
625.072	95.01
625.398	95.2
625.725	95.06
626.051	95.11
626.377	95.46
626.703	95.51
627.029	95.37
627.354	95.52
627.68	95.85
628.006	95.58
628.332	95.38
628.658	95.16
628.983	95.6
629.309	96
629.634	96.27
629.96	96.26
630.285	96.45
630.611	95.83
630.936	95.93
631.262	96.34
631.587	97.04
631.912	96.61
632.237	96.92
632.562	97.18
632.887	96.41
633.213	95.84
633.538	95.9
633.863	96.39
634.187	96.99
634.512	96.64
634.837	96.22
635.162	96.21
635.487	95.73
635.811	95.34
636.136	96.13
636.461	96.76
636.785	96.53
637.11	96.71
637.434	96.25
637.758	96.62
638.083	96.85
638.407	96.68
638.731	97.12
639.056	96.55
639.38	95.69
639.704	95.97
640.028	96.66
640.352	96.87
640.676	97.01
641	97.4
641.324	97.53
641.648	97.35
641.972	97.22
642.295	96.94
642.619	97.31
642.943	97.45
643.266	96.29
643.59	96.73
643.913	97.03
644.237	95.95
644.56	95.32
644.884	95.09
645.207	95.03
645.53	95.38
645.854	95.32
646.177	95.2
646.5	95.17
646.823	94.91
647.146	95.27
647.469	95.94
647.792	95.09
648.115	94.57
648.438	94.98
648.761	98.15
649.084	98.65
649.406	98.8
649.729	97.37
650.052	97.04
650.374	96.84
650.697	96.51
651.019	96.54
651.342	96.97
651.664	96.94
651.987	96.75
652.309	97.06
652.631	97.21
652.953	97.24
653.276	96.81
653.598	96.66
653.92	96.68
654.242	96.75
654.564	96.93
654.886	97.01
655.208	97.25
655.53	97.2
655.851	97.26
656.173	97.23
656.495	97.12
656.816	96.07
657.138	95.3
657.46	94.67
657.781	96.45
658.103	96.83
658.424	97.39
658.746	99.3
659.067	99.59
659.388	98.98
659.709	99.31
660.031	100.3
660.352	99.78
660.673	99.69
660.994	98.92
661.315	100.31
661.636	100.15
661.957	99.11
662.278	97.94
662.599	97.92
662.919	98.31
663.24	97.33
663.561	97.86
