Data from T1_Reflection__85__17-58-34-608.txt Node

Date: Wed Jun 02 17:58:34 CEST 2021
User: mabdelazizm
Spectrometer: FLMS18565
Trigger mode: 0
Integration Time (sec): 2.000000E0
Scans to average: 1
Electric dark correction enabled: true
Nonlinearity correction enabled: false
Boxcar width: 12
XAxis mode: Wavelengths
Number of Pixels in Spectrum: 2048
>>>>>Begin Spectral Data<<<<<
179.071	89.36
179.452	326.45
179.833	2506.06
180.214	147.62
180.595	-2633.33
180.977	233.08
181.358	522.44
181.739	316
182.12	218.93
182.501	169.77
182.882	71.5
183.262	59.51
183.643	248.29
184.024	63.15
184.405	68.6
184.786	58.92
185.166	40.96
185.547	35.68
185.927	29.77
186.308	28.41
186.689	21.36
187.069	21.95
187.449	22.5
187.83	24.59
188.21	17.4
188.59	16.92
188.971	15.33
189.351	15.07
189.731	12.21
190.111	15.87
190.491	16.64
190.871	16.53
191.251	16.23
191.631	16.49
192.011	16.93
192.391	16.76
192.771	16.47
193.151	17.49
193.531	13.88
193.91	12.37
194.29	12.92
194.67	14.13
195.049	15.13
195.429	14.27
195.808	13.36
196.188	15.04
196.567	15.32
196.946	15.01
197.326	15.92
197.705	15.77
198.084	15.42
198.464	16.46
198.843	18.11
199.222	18.79
199.601	16.99
199.98	15.97
200.359	16.42
200.738	16.79
201.117	16.06
201.496	15.5
201.875	15.39
202.254	15.16
202.632	14.46
203.011	14.03
203.39	13.7
203.768	13.17
204.147	12.32
204.525	12.63
204.904	12.32
205.282	13.43
205.661	13.33
206.039	12.73
206.418	12.6
206.796	12.57
207.174	12.81
207.552	13.11
207.931	12.72
208.309	11.37
208.687	11.18
209.065	12.02
209.443	11.89
209.821	10.86
210.199	10.46
210.577	10.21
210.954	9.38
211.332	8.39
211.71	7.88
212.088	8.58
212.465	8.22
212.843	7.36
213.221	7.11
213.598	6.93
213.976	6.02
214.353	5.19
214.731	4.48
215.108	4.49
215.485	4.79
215.863	4.28
216.24	3.6
216.617	4.48
216.994	4.02
217.371	4.32
217.749	4.03
218.126	3.61
218.503	3.55
218.88	3.63
219.256	3.7
219.633	3.55
220.01	4.07
220.387	4.6
220.764	4.93
221.14	4.98
221.517	4.04
221.894	4.43
222.27	4.73
222.647	4.5
223.023	4.4
223.4	4.37
223.776	4.74
224.153	5.09
224.529	5.08
224.905	5.06
225.282	5.21
225.658	5.1
226.034	4.55
226.41	4.7
226.786	4.33
227.162	4.26
227.538	4.46
227.914	4.43
228.29	4.43
228.666	4.34
229.042	4.17
229.418	3.85
229.793	3.6
230.169	3.3
230.545	3.1
230.92	3.13
231.296	3.03
231.672	3.04
232.047	2.88
232.422	2.99
232.798	2.91
233.173	2.82
233.549	2.62
233.924	2.48
234.299	2.46
234.674	2.3
235.05	2.26
235.425	2.25
235.8	2.17
236.175	2.18
236.55	2.18
236.925	1.97
237.3	1.98
237.675	1.93
238.049	2.07
238.424	2.09
238.799	2.04
239.174	2.07
239.548	2.24
239.923	2.22
240.297	2.24
240.672	2.24
241.046	2.33
241.421	2.4
241.795	2.2
242.17	2.16
242.544	2.14
242.918	2
243.293	1.95
243.667	1.83
244.041	1.88
244.415	1.87
244.789	1.94
245.163	1.98
245.537	1.99
245.911	1.93
246.285	1.99
246.659	1.92
247.033	2.01
247.406	1.86
247.78	1.81
248.154	1.9
248.528	1.97
248.901	1.92
249.275	1.92
249.648	1.92
250.022	1.84
250.395	1.78
250.769	1.8
251.142	1.92
251.515	1.96
251.888	2
252.262	2.09
252.635	2.12
253.008	2.12
253.381	2.13
253.754	2.16
254.127	2.13
254.5	2.05
254.873	1.98
255.246	2.02
255.619	1.99
255.992	1.99
256.364	1.92
256.737	1.97
257.11	2.02
257.483	2.03
257.855	1.99
258.228	1.96
258.6	2.01
258.973	2.08
259.345	2.15
259.718	2.09
260.09	2.06
260.462	2.01
260.834	2.01
261.207	1.98
261.579	1.98
261.951	1.95
262.323	1.98
262.695	1.94
263.067	1.86
263.439	1.83
263.811	1.82
264.183	1.9
264.555	1.94
264.927	1.92
265.298	1.88
265.67	1.86
266.042	1.81
266.413	1.76
266.785	1.71
267.156	1.71
267.528	1.71
267.899	1.62
268.271	1.54
268.642	1.5
269.013	1.57
269.385	1.59
269.756	1.61
270.127	1.56
270.498	1.66
270.87	1.65
271.241	1.65
271.612	1.63
271.983	1.65
272.354	1.69
272.724	1.69
273.095	1.73
273.466	1.78
273.837	1.76
274.208	1.81
274.578	1.85
274.949	1.85
275.32	1.86
275.69	1.91
276.061	1.98
276.431	1.97
276.802	1.97
277.172	2.04
277.542	1.98
277.913	1.97
278.283	1.9
278.653	1.85
279.023	1.86
279.394	1.91
279.764	1.82
280.134	1.8
280.504	1.82
280.874	1.73
281.244	1.64
281.614	1.56
281.983	1.47
282.353	1.55
282.723	1.45
283.093	1.42
283.462	1.34
283.832	1.28
284.202	1.33
284.571	1.28
284.941	1.2
285.31	1.16
285.68	1.15
286.049	1.09
286.418	1.11
286.788	1.3
287.157	1.27
287.526	1.24
287.895	1.25
288.264	1.29
288.633	1.29
289.002	1.24
289.371	1.24
289.74	1.16
290.109	1.16
290.478	1.16
290.847	1.27
291.216	1.26
291.585	1.12
291.953	1.08
292.322	1.07
292.691	1.07
293.059	1.11
293.428	1.07
293.796	1.12
294.165	1.14
294.533	1.11
294.901	1.05
295.27	1.12
295.638	1.1
296.006	0.94
296.374	0.99
296.743	1.01
297.111	1.02
297.479	0.95
297.847	0.9
298.215	0.93
298.583	0.82
298.95	0.81
299.318	0.83
299.686	0.82
300.054	0.8
300.422	0.82
300.789	0.86
301.157	0.88
301.525	0.86
301.892	0.82
302.26	0.78
302.627	0.74
302.994	0.72
303.362	0.7
303.729	0.67
304.097	0.76
304.464	0.7
304.831	0.73
305.198	0.73
305.565	0.73
305.932	0.71
306.299	0.71
306.666	0.72
307.033	0.73
307.4	0.76
307.767	0.77
308.134	0.85
308.501	0.87
308.867	0.88
309.234	0.8
309.601	0.82
309.967	0.78
310.334	0.88
310.701	0.91
311.067	0.94
311.433	0.96
311.8	0.97
312.166	0.93
312.533	0.99
312.899	0.99
313.265	0.92
313.631	0.99
313.997	0.95
314.363	0.95
314.729	0.92
315.096	0.98
315.461	1.01
315.827	0.95
316.193	1.02
316.559	1.04
316.925	1.15
317.291	1.11
317.656	1.13
318.022	1.23
318.388	1.31
318.753	1.36
319.119	1.4
319.484	1.39
319.85	1.44
320.215	1.47
320.581	1.45
320.946	1.46
321.311	1.59
321.676	1.53
322.042	1.53
322.407	1.52
322.772	1.5
323.137	1.55
323.502	1.59
323.867	1.52
324.232	1.51
324.597	1.46
324.962	1.46
325.327	1.42
325.691	1.36
326.056	1.32
326.421	1.32
326.785	1.28
327.15	1.28
327.514	1.26
327.879	1.24
328.243	1.18
328.608	1.08
328.972	1.04
329.337	0.94
329.701	0.89
330.065	0.91
330.429	0.79
330.794	0.81
331.158	0.85
331.522	0.88
331.886	0.9
332.25	0.86
332.614	0.79
332.978	0.84
333.342	0.76
333.705	0.79
334.069	0.87
334.433	0.84
334.797	0.96
335.16	0.9
335.524	0.87
335.887	0.9
336.251	0.81
336.614	0.82
336.978	0.81
337.341	0.85
337.705	0.89
338.068	1.02
338.431	1.06
338.794	1.12
339.158	0.97
339.521	0.95
339.884	0.92
340.247	0.95
340.61	0.9
340.973	0.85
341.336	0.88
341.699	0.89
342.062	0.92
342.424	0.94
342.787	0.85
343.15	0.76
343.512	0.69
343.875	0.59
344.238	0.69
344.6	0.72
344.963	0.7
345.325	0.71
345.688	0.67
346.05	0.61
346.412	0.6
346.775	0.59
347.137	0.42
347.499	0.48
347.861	0.44
348.223	0.51
348.585	0.55
348.947	0.55
349.309	0.5
349.671	0.52
350.033	0.61
350.395	0.56
350.757	0.54
351.118	0.5
351.48	0.53
351.842	0.57
352.203	0.62
352.565	0.68
352.927	0.66
353.288	0.63
353.65	0.64
354.011	0.64
354.372	0.67
354.734	0.67
355.095	0.77
355.456	0.76
355.817	0.76
356.179	0.83
356.54	0.75
356.901	0.84
357.262	0.85
357.623	0.92
357.984	0.95
358.345	0.95
358.705	1.02
359.066	0.92
359.427	0.88
359.788	0.92
360.148	0.97
360.509	1
360.87	1.09
361.23	1.12
361.591	1.16
361.951	1.19
362.312	1.14
362.672	1.13
363.032	1.08
363.393	1.09
363.753	1.14
364.113	1.08
364.473	1.11
364.833	1.09
365.193	1.02
365.553	1.13
365.913	1.11
366.273	1.26
366.633	1.24
366.993	1.18
367.353	1.19
367.713	1.11
368.072	1.05
368.432	1.07
368.792	1.06
369.151	1.02
369.511	0.97
369.87	0.92
370.23	0.84
370.589	0.69
370.949	0.67
371.308	0.71
371.667	0.72
372.027	0.73
372.386	0.69
372.745	0.64
373.104	0.62
373.463	0.6
373.822	0.55
374.181	0.61
374.54	0.57
374.899	0.56
375.258	0.43
375.617	0.37
375.975	0.41
376.334	0.38
376.693	0.34
377.052	0.43
377.41	0.46
377.769	0.4
378.127	0.39
378.486	0.4
378.844	0.44
379.202	0.49
379.561	0.5
379.919	0.48
380.277	0.37
380.636	0.43
380.994	0.44
381.352	0.4
381.71	0.49
382.068	0.55
382.426	0.55
382.784	0.63
383.142	0.63
383.5	0.61
383.857	0.62
384.215	0.7
384.573	0.67
384.931	0.7
385.288	0.57
385.646	0.56
386.003	0.55
386.361	0.56
386.718	0.66
387.076	0.76
387.433	0.76
387.791	0.69
388.148	0.7
388.505	0.78
388.862	0.82
389.22	0.97
389.577	0.95
389.934	1.01
390.291	1.16
390.648	1.04
391.005	0.99
391.362	1
391.718	1.06
392.075	0.95
392.432	0.89
392.789	0.81
393.145	0.79
393.502	0.78
393.859	0.79
394.215	0.92
394.572	0.97
394.928	0.91
395.285	0.9
395.641	0.88
395.997	0.74
396.354	0.8
396.71	0.9
397.066	0.91
397.422	0.94
397.778	0.98
398.134	0.87
398.491	0.84
398.846	0.81
399.202	0.72
399.558	0.73
399.914	0.8
400.27	0.85
400.626	0.75
400.981	0.77
401.337	0.81
401.693	0.93
402.048	0.99
402.404	1.07
402.759	1.12
403.115	1.11
403.47	1.17
403.826	1.27
404.181	1.15
404.536	1.13
404.892	1.16
405.247	1.02
405.602	0.98
405.957	0.95
406.312	0.94
406.667	0.85
407.022	0.86
407.377	0.96
407.732	1.07
408.087	1.11
408.442	1.23
408.796	1.08
409.151	1.01
409.506	1.02
409.86	1.07
410.215	1.08
410.57	1.02
410.924	0.91
411.279	0.86
411.633	0.83
411.987	0.84
412.342	0.76
412.696	0.67
413.05	0.78
413.404	0.74
413.758	0.91
414.113	1.02
414.467	1.05
414.821	1.01
415.175	1.07
415.529	1.14
415.882	1.08
416.236	0.89
416.59	0.85
416.944	0.85
417.298	0.85
417.651	0.9
418.005	0.9
418.358	0.92
418.712	1
419.065	1.02
419.419	1.07
419.772	1.13
420.126	1.16
420.479	1.19
420.832	1.29
421.185	1.32
421.539	1.29
421.892	1.28
422.245	1.42
422.598	1.29
422.951	1.36
423.304	1.32
423.657	1.44
424.01	1.32
424.363	1.4
424.715	1.54
425.068	1.71
425.421	1.69
425.773	1.69
426.126	1.79
426.479	1.9
426.831	2.04
427.184	2.01
427.536	1.94
427.889	1.92
428.241	1.84
428.593	1.87
428.945	1.92
429.298	1.88
429.65	1.78
430.002	1.88
430.354	2
430.706	1.93
431.058	1.95
431.41	2.05
431.762	2.12
432.114	2.14
432.466	2.11
432.817	2.17
433.169	2.06
433.521	2.07
433.872	2.09
434.224	2.03
434.576	2.05
434.927	1.83
435.279	1.83
435.63	1.71
435.981	1.77
436.333	1.83
436.684	1.83
437.035	1.82
437.387	1.74
437.738	1.75
438.089	1.78
438.44	1.84
438.791	1.79
439.142	1.91
439.493	2
439.844	1.88
440.195	1.73
440.545	1.62
440.896	1.69
441.247	1.72
441.598	1.69
441.948	1.73
442.299	1.77
442.649	1.63
443	1.71
443.35	1.69
443.701	1.77
444.051	1.86
444.401	2.03
444.752	1.95
445.102	1.98
445.452	2.06
445.802	2.04
446.152	2.05
446.502	1.99
446.852	2.03
447.202	2.01
447.552	2.19
447.902	2.11
448.252	2.12
448.602	3.85
448.952	3.96
449.301	3.93
449.651	3.91
450.001	3.86
450.35	4.02
450.7	4.07
451.049	3.97
451.399	4.16
451.748	4.09
452.097	4.18
452.447	4.34
452.796	4.2
453.145	4.11
453.494	4.28
453.843	4.29
454.193	4.36
454.542	4.5
454.891	4.55
455.239	4.53
455.588	4.47
455.937	4.51
456.286	4.47
456.635	4.43
456.984	4.4
457.332	2.57
457.681	2.62
458.03	2.74
458.378	2.69
458.727	2.88
459.075	2.72
459.423	2.87
459.772	2.94
460.12	2.98
460.468	3.11
460.817	3.09
461.165	2.93
461.513	2.97
461.861	3.08
462.209	3.04
462.557	3.09
462.905	2.98
463.253	2.99
463.601	3.1
463.949	3.21
464.297	3.3
464.644	3.29
464.992	3.22
465.34	3.21
465.687	3.26
466.035	3.24
466.383	3.16
466.73	3.21
467.078	3.22
467.425	3.17
467.772	3.25
468.12	3.16
468.467	3.15
468.814	3.15
469.161	3.11
469.508	3.02
469.856	3
470.203	2.96
470.55	2.79
470.897	2.91
471.243	2.77
471.59	2.71
471.937	2.72
472.284	2.68
472.631	2.61
472.977	2.51
473.324	2.58
473.671	2.58
474.017	2.56
474.364	2.63
474.71	2.65
475.057	2.67
475.403	2.59
475.749	2.62
476.096	2.56
476.442	2.54
476.788	2.59
477.134	2.55
477.48	2.47
477.826	2.41
478.172	2.52
478.518	2.53
478.864	2.49
479.21	2.54
479.556	2.42
479.902	2.43
480.248	2.48
480.593	2.4
480.939	2.4
481.285	2.45
481.63	2.5
481.976	2.55
482.321	2.54
482.667	2.69
483.012	2.71
483.357	2.7
483.703	2.79
484.048	2.96
484.393	3.15
484.738	3.26
485.084	3.37
485.429	3.54
485.774	3.79
486.119	3.95
486.464	4.17
486.808	4.34
487.153	4.52
487.498	4.8
487.843	5.1
488.188	5.49
488.532	5.83
488.877	6.15
489.222	6.54
489.566	6.92
489.911	7.32
490.255	7.81
490.6	8.27
490.944	8.75
491.288	9.14
491.633	9.58
491.977	10.2
492.321	10.71
492.665	11.17
493.009	11.57
493.353	12.18
493.697	12.79
494.041	13.35
494.385	13.9
494.729	14.58
495.073	15.35
495.417	16.11
495.76	16.84
496.104	17.53
496.448	18.24
496.791	18.92
497.135	19.68
497.479	20.49
497.822	21.41
498.165	22.24
498.509	23.08
498.852	23.92
499.196	24.75
499.539	25.63
499.882	26.48
500.225	27.42
500.568	28.15
500.911	28.94
501.254	29.7
501.597	30.59
501.94	31.32
502.283	32.09
502.626	32.8
502.969	33.67
503.312	34.39
503.654	35.1
503.997	35.92
504.34	36.68
504.682	37.56
505.025	38.37
505.367	39.01
505.71	39.67
506.052	40.42
506.395	40.95
506.737	41.7
507.079	42.45
507.421	43.07
507.764	43.73
508.106	44.33
508.448	44.95
508.79	45.51
509.132	46.17
509.474	46.82
509.816	47.46
510.158	47.95
510.499	48.59
510.841	49.13
511.183	49.56
511.525	50.02
511.866	50.71
512.208	51.18
512.549	51.57
512.891	52
513.232	52.51
513.574	52.97
513.915	53.48
514.256	53.99
514.598	54.46
514.939	54.95
515.28	55.29
515.621	55.59
515.962	55.96
516.303	56.31
516.644	56.63
516.985	57.06
517.326	57.43
517.667	57.7
518.008	57.82
518.349	58.17
518.69	58.67
519.03	58.7
519.371	59
519.712	59.5
520.052	59.63
520.393	59.79
520.733	60.23
521.074	60.4
521.414	60.87
521.754	60.97
522.095	61.11
522.435	61.42
522.775	61.68
523.115	61.95
523.455	62.09
523.795	62.36
524.135	62.68
524.475	62.87
524.815	63.12
525.155	63.42
525.495	63.51
525.835	63.69
526.175	63.9
526.514	64.2
526.854	64.41
527.194	64.41
527.533	64.8
527.873	65
528.212	65.11
528.552	65.52
528.891	65.53
529.23	65.56
529.57	65.7
529.909	65.56
530.248	65.62
530.587	65.75
530.927	65.79
531.266	65.95
531.605	65.93
531.944	66.07
532.283	66.06
532.621	65.98
532.96	66.24
533.299	66.45
533.638	66.68
533.977	66.88
534.315	66.72
534.654	66.84
534.992	67.03
535.331	66.88
535.67	67.06
536.008	67.4
536.346	67.3
536.685	67.51
537.023	67.21
537.361	67.38
537.7	67.39
538.038	67.5
538.376	67.74
538.714	68
539.052	68.04
539.39	68.19
539.728	68.22
540.066	68.44
540.404	68.53
540.741	68.62
541.079	68.82
541.417	68.83
541.755	68.81
542.092	68.74
542.43	68.75
542.767	69
543.105	68.92
543.442	68.83
543.78	69.11
544.117	69.19
544.454	68.92
544.792	69.23
545.129	69.28
545.466	69.6
545.803	69.55
546.14	69.59
546.477	69.65
546.814	69.61
547.151	69.56
547.488	69.7
547.825	69.72
548.162	69.68
548.499	69.68
548.835	69.71
549.172	69.82
549.509	69.67
549.845	69.56
550.182	69.53
550.518	69.66
550.855	69.79
551.191	69.92
551.528	70.01
551.864	70.12
552.2	70.15
552.537	70.09
552.873	70.25
553.209	70.27
553.545	70.23
553.881	70.26
554.217	70.42
554.553	70.62
554.889	70.77
555.225	70.72
555.561	70.77
555.896	70.9
556.232	70.91
556.568	71.04
556.903	70.99
557.239	71.09
557.575	71.03
557.91	71.37
558.245	71.7
558.581	71.92
558.916	71.8
559.252	71.75
559.587	71.54
559.922	71.64
560.257	71.76
560.592	71.7
560.928	71.85
561.263	72.06
561.598	72.15
561.933	72.23
562.267	72.44
562.602	72.51
562.937	72.31
563.272	72.45
563.607	72.73
563.941	72.93
564.276	72.97
564.611	73.24
564.945	73.17
565.28	73.23
565.614	72.99
565.949	72.92
566.283	73.01
566.617	73.01
566.951	72.69
567.286	72.93
567.62	72.92
567.954	73.25
568.288	73.42
568.622	73.27
568.956	73.17
569.29	73.03
569.624	72.98
569.958	73
570.292	73.04
570.626	72.99
570.959	73.22
571.293	73.33
571.627	73.33
571.96	73.25
572.294	73.15
572.627	72.99
572.961	72.89
573.294	73.01
573.627	72.92
573.961	73.04
574.294	73.28
574.627	73.32
574.961	73.35
575.294	73.47
575.627	73.23
575.96	73.29
576.293	73.22
576.626	73.02
576.959	73.11
577.292	73.14
577.624	73.19
577.957	73.13
578.29	73.28
578.623	73.14
578.955	73.13
579.288	73.03
579.62	73.13
579.953	73.11
580.285	73.17
580.618	73.33
580.95	73.57
581.282	73.62
581.615	73.59
581.947	73.7
582.279	73.73
582.611	73.62
582.943	73.49
583.275	73.38
583.607	73.47
583.939	73.59
584.271	73.58
584.603	73.55
584.935	73.73
585.267	73.69
585.598	73.7
585.93	73.87
586.262	74.04
586.593	73.88
586.925	73.91
587.256	73.94
587.588	73.75
587.919	73.63
588.25	73.53
588.582	73.45
588.913	73.51
589.244	73.18
589.575	73.23
589.907	73.36
590.238	73.39
590.569	73.43
590.9	73.55
591.231	73.49
591.562	73.58
591.892	73.59
592.223	73.8
592.554	73.75
592.885	73.65
593.215	73.57
593.546	73.58
593.877	73.59
594.207	73.39
594.538	73.24
594.868	73.13
595.198	73.34
595.529	73.39
595.859	73.62
596.189	73.75
596.52	73.83
596.85	74.04
597.18	74
597.51	74.13
597.84	73.84
598.17	73.75
598.5	73.8
598.83	73.72
599.16	73.83
599.489	74
599.819	74.01
600.149	73.95
600.479	73.67
600.808	73.76
601.138	73.86
601.467	73.76
601.797	73.8
602.126	73.84
602.456	73.96
602.785	74.13
603.114	74.31
603.443	74.25
603.773	74.29
604.102	74.23
604.431	74.02
604.76	73.92
605.089	73.77
605.418	73.58
605.747	73.58
606.076	73.71
606.405	73.68
606.733	73.67
607.062	73.76
607.391	73.47
607.72	73.24
608.048	73.2
608.377	73.05
608.705	73.12
609.034	72.97
609.362	72.93
609.69	73.01
610.019	73.02
610.347	73.03
610.675	73.14
611.004	73.1
611.332	73.02
611.66	73.1
611.988	72.82
612.316	72.59
612.644	72.7
612.972	72.69
613.3	72.54
613.627	72.64
613.955	72.82
614.283	72.75
614.611	72.87
614.938	73.1
615.266	73.03
615.593	73.23
615.921	73.24
616.248	73.25
616.576	73.32
616.903	73.45
617.23	73.43
617.558	73.5
617.885	73.67
618.212	73.71
618.539	73.61
618.866	73.74
619.193	73.41
619.52	73.49
619.847	73.16
620.174	73.25
620.501	73.51
620.828	73.02
621.155	73.05
621.481	73.1
621.808	73.05
622.135	72.82
622.461	73.39
622.788	73.26
623.114	72.92
623.441	72.82
623.767	72.85
624.093	73.12
624.42	72.9
624.746	73.75
625.072	73.77
625.398	74.06
625.725	74.48
626.051	74.11
626.377	74.47
626.703	74.54
627.029	74.26
627.354	75.02
627.68	74.79
628.006	74.92
628.332	74.68
628.658	74.57
628.983	74.98
629.309	75.69
629.634	76.11
629.96	75.94
630.285	76.54
630.611	75.99
630.936	76.27
631.262	75.93
631.587	76.47
631.912	76.15
632.237	76.07
632.562	76.48
632.887	75.33
633.213	75.35
633.538	75.42
633.863	74.77
634.187	75.69
634.512	75.7
634.837	75.78
635.162	75.69
635.487	75.04
635.811	74.81
636.136	75.31
636.461	75.83
636.785	76
637.11	76.08
637.434	75.29
637.758	75.55
638.083	75.6
638.407	75.47
638.731	75.85
639.056	75.63
639.38	76.2
639.704	76.7
640.028	77.39
640.352	77.61
640.676	78.14
641	78.56
641.324	78.41
641.648	78.11
641.972	77.81
642.295	77.38
642.619	77.42
642.943	76.82
643.266	76.3
643.59	76.01
643.913	76.83
644.237	76.35
644.56	76.31
644.884	76.23
645.207	76.83
645.53	77.52
645.854	77.89
646.177	77.99
646.5	77.74
646.823	77.67
647.146	77.89
647.469	77.61
647.792	77.19
648.115	77.01
648.438	77.18
648.761	78.52
649.084	77.78
649.406	77.12
649.729	75.31
650.052	74.82
650.374	74.62
650.697	74.26
651.019	74.56
651.342	74.61
651.664	74.79
651.987	74.5
652.309	74.42
652.631	74.5
652.953	74.35
653.276	74.08
653.598	73.74
653.92	73.55
654.242	73.52
654.564	73.61
654.886	73.54
655.208	73.52
655.53	73.68
655.851	73.74
656.173	73.57
656.495	73.56
656.816	72.56
657.138	72.1
657.46	71.6
657.781	73.18
658.103	74.13
658.424	75.24
658.746	76.56
659.067	76.63
659.388	76.17
659.709	75.61
660.031	75.92
660.352	76.04
660.673	75.26
660.994	74.86
661.315	76.09
661.636	76.57
661.957	76.05
662.278	74.8
662.599	73.78
662.919	74.29
663.24	74.22
663.561	73.91
663.881	73.33
