Data from T1_Reflection__84__17-57-46-610.txt Node

Date: Wed Jun 02 17:57:46 CEST 2021
User: mabdelazizm
Spectrometer: FLMS18565
Trigger mode: 0
Integration Time (sec): 2.000000E0
Scans to average: 1
Electric dark correction enabled: true
Nonlinearity correction enabled: false
Boxcar width: 12
XAxis mode: Wavelengths
Number of Pixels in Spectrum: 2048
>>>>>Begin Spectral Data<<<<<
179.071	396.89
179.452	1279.34
179.833	8909.09
180.214	838.1
180.595	-10436.36
180.977	728.52
181.358	1707.32
181.739	1173.33
182.12	667.69
182.501	615.28
182.882	275.96
183.262	331.29
183.643	1485.93
184.024	-158.18
184.405	-27.98
184.786	11.61
185.166	13.37
185.547	13.8
185.927	10.25
186.308	15.89
186.689	18.14
187.069	24.39
187.449	19.71
187.83	18.15
188.21	13.78
188.59	9.5
188.971	7.15
189.351	3.37
189.731	3.43
190.111	6.37
190.491	7.12
190.871	6.64
191.251	7.43
191.631	5.29
192.011	4.94
192.391	6.23
192.771	7.77
193.151	6.37
193.531	4.48
193.91	2.76
194.29	2.37
194.67	2.19
195.049	4.14
195.429	3.65
195.808	3.58
196.188	2.9
196.567	3.12
196.946	2.62
197.326	2.44
197.705	1.85
198.084	3.07
198.464	3.62
198.843	4.84
199.222	6.69
199.601	6.57
199.98	6.39
200.359	5.52
200.738	6.45
201.117	6.21
201.496	6.52
201.875	6.61
202.254	5.21
202.632	4.18
203.011	4.44
203.39	3.93
203.768	3.39
204.147	3.49
204.525	2.54
204.904	2.62
205.282	2.76
205.661	2.82
206.039	2.72
206.418	2.22
206.796	2.68
207.174	3.28
207.552	3.52
207.931	3.93
208.309	4.06
208.687	3.44
209.065	3.9
209.443	4.02
209.821	4.23
210.199	2.37
210.577	2.62
210.954	2.34
211.332	1.47
211.71	1.94
212.088	3.03
212.465	2.45
212.843	2.92
213.221	3.58
213.598	3.06
213.976	2.71
214.353	2.07
214.731	1.52
215.108	1.56
215.485	1.04
215.863	1.22
216.24	0.76
216.617	1.38
216.994	0.83
217.371	0.68
217.749	0.59
218.126	-0.15
218.503	-0.24
218.88	-0.46
219.256	-0.28
219.633	0.43
220.01	1.37
220.387	1.64
220.764	2.5
221.14	2.5
221.517	2.16
221.894	2.55
222.27	2.52
222.647	2.36
223.023	2.8
223.4	2.98
223.776	3.16
224.153	3.31
224.529	3.33
224.905	3.51
225.282	3.49
225.658	3.52
226.034	3.09
226.41	3.43
226.786	3.42
227.162	3.43
227.538	3.51
227.914	3.39
228.29	3.64
228.666	3.27
229.042	3.3
229.418	2.96
229.793	3.26
230.169	2.94
230.545	2.72
230.92	2.68
231.296	2.64
231.672	2.65
232.047	2.48
232.422	2.36
232.798	2.21
233.173	2.13
233.549	2.12
233.924	1.94
234.299	1.99
234.674	1.94
235.05	1.8
235.425	1.81
235.8	1.65
236.175	1.57
236.55	1.56
236.925	1.42
237.3	1.33
237.675	1.27
238.049	1.5
238.424	1.6
238.799	1.47
239.174	1.33
239.548	1.47
239.923	1.45
240.297	1.52
240.672	1.46
241.046	1.42
241.421	1.41
241.795	1.33
242.17	1.41
242.544	1.41
242.918	1.31
243.293	1.34
243.667	1.27
244.041	1.4
244.415	1.46
244.789	1.51
245.163	1.56
245.537	1.58
245.911	1.58
246.285	1.66
246.659	1.77
247.033	1.81
247.406	1.73
247.78	1.61
248.154	1.68
248.528	1.63
248.901	1.6
249.275	1.65
249.648	1.65
250.022	1.68
250.395	1.76
250.769	1.79
251.142	1.83
251.515	1.81
251.888	1.9
252.262	1.98
252.635	2
253.008	2.01
253.381	1.87
253.754	1.9
254.127	1.89
254.5	1.84
254.873	1.82
255.246	1.8
255.619	1.8
255.992	1.76
256.364	1.7
256.737	1.69
257.11	1.75
257.483	1.8
257.855	1.81
258.228	1.84
258.6	1.86
258.973	1.92
259.345	1.91
259.718	1.84
260.09	1.83
260.462	1.8
260.834	1.83
261.207	1.79
261.579	1.75
261.951	1.73
262.323	1.73
262.695	1.76
263.067	1.66
263.439	1.58
263.811	1.53
264.183	1.55
264.555	1.57
264.927	1.54
265.298	1.54
265.67	1.52
266.042	1.52
266.413	1.44
266.785	1.36
267.156	1.33
267.528	1.2
267.899	1.15
268.271	1.05
268.642	1.07
269.013	1.14
269.385	1.11
269.756	1.11
270.127	1.03
270.498	1.08
270.87	1.16
271.241	1.12
271.612	1.11
271.983	1.16
272.354	1.22
272.724	1.3
273.095	1.41
273.466	1.43
273.837	1.45
274.208	1.42
274.578	1.38
274.949	1.39
275.32	1.37
275.69	1.4
276.061	1.43
276.431	1.46
276.802	1.52
277.172	1.55
277.542	1.43
277.913	1.42
278.283	1.33
278.653	1.37
279.023	1.45
279.394	1.46
279.764	1.36
280.134	1.27
280.504	1.28
280.874	1.2
281.244	1.12
281.614	1.07
281.983	1
282.353	1.03
282.723	1.01
283.093	0.99
283.462	0.96
283.832	1.01
284.202	1.02
284.571	1.06
284.941	1.08
285.31	1.02
285.68	1
286.049	1
286.418	1.03
286.788	1.22
287.157	1.16
287.526	1.16
287.895	1.17
288.264	1.13
288.633	1.19
289.002	1.17
289.371	1.2
289.74	1.16
290.109	1.14
290.478	1.17
290.847	1.22
291.216	1.2
291.585	1.08
291.953	1.07
292.322	1.01
292.691	1.06
293.059	1
293.428	0.98
293.796	0.91
294.165	0.89
294.533	0.97
294.901	1.02
295.27	0.98
295.638	0.95
296.006	0.84
296.374	0.92
296.743	0.95
297.111	0.95
297.479	0.97
297.847	0.98
298.215	0.99
298.583	1.01
298.95	1.02
299.318	1.11
299.686	1.05
300.054	1.08
300.422	1.09
300.789	1.14
301.157	1.13
301.525	1.14
301.892	1.1
302.26	1.09
302.627	1.07
302.994	1.03
303.362	1.01
303.729	0.98
304.097	0.96
304.464	1
304.831	0.98
305.198	0.96
305.565	0.9
305.932	0.86
306.299	0.83
306.666	0.79
307.033	0.71
307.4	0.75
307.767	0.7
308.134	0.76
308.501	0.74
308.867	0.76
309.234	0.64
309.601	0.69
309.967	0.62
310.334	0.62
310.701	0.67
311.067	0.66
311.433	0.69
311.8	0.72
312.166	0.74
312.533	0.8
312.899	0.75
313.265	0.76
313.631	0.84
313.997	0.82
314.363	0.84
314.729	0.82
315.096	0.82
315.461	0.8
315.827	0.8
316.193	0.87
316.559	0.8
316.925	0.84
317.291	0.83
317.656	0.77
318.022	0.76
318.388	0.9
318.753	0.88
319.119	0.95
319.484	0.97
319.85	0.98
320.215	1.1
320.581	1.1
320.946	1.1
321.311	1.22
321.676	1.14
322.042	1.19
322.407	1.11
322.772	1.02
323.137	1.1
323.502	1.16
323.867	1.12
324.232	1.13
324.597	1.13
324.962	1.06
325.327	1.01
325.691	1
326.056	1.04
326.421	1.03
326.785	1.08
327.15	1.12
327.514	1.09
327.879	1.08
328.243	1.03
328.608	0.91
328.972	0.84
329.337	0.66
329.701	0.57
330.065	0.54
330.429	0.44
330.794	0.43
331.158	0.42
331.522	0.47
331.886	0.53
332.25	0.46
332.614	0.39
332.978	0.43
333.342	0.39
333.705	0.42
334.069	0.48
334.433	0.5
334.797	0.51
335.16	0.43
335.524	0.4
335.887	0.37
336.251	0.27
336.614	0.26
336.978	0.21
337.341	0.19
337.705	0.3
338.068	0.45
338.431	0.53
338.794	0.58
339.158	0.52
339.521	0.52
339.884	0.57
340.247	0.6
340.61	0.6
340.973	0.52
341.336	0.52
341.699	0.47
342.062	0.41
342.424	0.36
342.787	0.3
343.15	0.29
343.512	0.14
343.875	0.16
344.238	0.15
344.6	0.17
344.963	0.2
345.325	0.24
345.688	0.2
346.05	0.19
346.412	0.16
346.775	0.15
347.137	0.02
347.499	0.07
347.861	-0
348.223	0.02
348.585	0.05
348.947	-0.05
349.309	-0.13
349.671	-0.13
350.033	-0.15
350.395	-0.18
350.757	-0.13
351.118	-0.03
351.48	0.03
351.842	-0.02
352.203	-0.09
352.565	0.04
352.927	0
353.288	0.08
353.65	0.17
354.011	0.09
354.372	0.1
354.734	0.14
355.095	0.27
355.456	0.29
355.817	0.29
356.179	0.35
356.54	0.34
356.901	0.43
357.262	0.43
357.623	0.44
357.984	0.59
358.345	0.59
358.705	0.59
359.066	0.65
359.427	0.62
359.788	0.56
360.148	0.57
360.509	0.62
360.87	0.7
361.23	0.82
361.591	0.86
361.951	0.9
362.312	0.83
362.672	0.75
363.032	0.71
363.393	0.74
363.753	0.77
364.113	0.73
364.473	0.83
364.833	0.75
365.193	0.64
365.553	0.61
365.913	0.64
366.273	0.72
366.633	0.7
366.993	0.55
367.353	0.59
367.713	0.59
368.072	0.5
368.432	0.62
368.792	0.69
369.151	0.61
369.511	0.59
369.87	0.6
370.23	0.54
370.589	0.46
370.949	0.43
371.308	0.45
371.667	0.42
372.027	0.51
372.386	0.57
372.745	0.53
373.104	0.41
373.463	0.4
373.822	0.44
374.181	0.52
374.54	0.43
374.899	0.42
375.258	0.39
375.617	0.37
375.975	0.37
376.334	0.32
376.693	0.27
377.052	0.34
377.41	0.35
377.769	0.35
378.127	0.41
378.486	0.39
378.844	0.36
379.202	0.36
379.561	0.35
379.919	0.39
380.277	0.31
380.636	0.34
380.994	0.41
381.352	0.39
381.71	0.44
382.068	0.54
382.426	0.46
382.784	0.5
383.142	0.48
383.5	0.58
383.857	0.63
384.215	0.66
384.573	0.63
384.931	0.72
385.288	0.65
385.646	0.64
386.003	0.61
386.361	0.63
386.718	0.67
387.076	0.69
387.433	0.63
387.791	0.67
388.148	0.61
388.505	0.59
388.862	0.57
389.22	0.72
389.577	0.67
389.934	0.66
390.291	0.71
390.648	0.66
391.005	0.57
391.362	0.64
391.718	0.6
392.075	0.53
392.432	0.48
392.789	0.36
393.145	0.35
393.502	0.33
393.859	0.37
394.215	0.42
394.572	0.47
394.928	0.42
395.285	0.33
395.641	0.3
395.997	0.22
396.354	0.32
396.71	0.36
397.066	0.48
397.422	0.6
397.778	0.65
398.134	0.58
398.491	0.65
398.846	0.62
399.202	0.52
399.558	0.52
399.914	0.58
400.27	0.61
400.626	0.6
400.981	0.66
401.337	0.67
401.693	0.76
402.048	0.79
402.404	0.86
402.759	0.78
403.115	0.87
403.47	0.91
403.826	1.03
404.181	1.05
404.536	1.07
404.892	1.17
405.247	1.15
405.602	1.14
405.957	1.13
406.312	1.08
406.667	1.04
407.022	0.98
407.377	1.01
407.732	1.02
408.087	1.03
408.442	1.05
408.796	0.91
409.151	0.85
409.506	0.79
409.86	0.82
410.215	0.79
410.57	0.83
410.924	0.76
411.279	0.74
411.633	0.84
411.987	0.82
412.342	0.81
412.696	0.77
413.05	0.87
413.404	0.86
413.758	0.92
414.113	0.92
414.467	0.96
414.821	0.97
415.175	1.1
415.529	1.2
415.882	1.15
416.236	1.11
416.59	1.08
416.944	1.13
417.298	1.16
417.651	1.24
418.005	1.28
418.358	1.42
418.712	1.51
419.065	1.5
419.419	1.49
419.772	1.54
420.126	1.59
420.479	1.65
420.832	1.74
421.185	1.81
421.539	1.77
421.892	1.62
422.245	1.62
422.598	1.53
422.951	1.54
423.304	1.62
423.657	1.64
424.01	1.5
424.363	1.55
424.715	1.69
425.068	1.75
425.421	1.8
425.773	1.85
426.126	1.96
426.479	2.09
426.831	2.2
427.184	2.09
427.536	2.04
427.889	2.09
428.241	2.14
428.593	2.07
428.945	2.11
429.298	2.01
429.65	1.93
430.002	2.06
430.354	2.11
430.706	2.14
431.058	2.14
431.41	2.3
431.762	2.45
432.114	2.33
432.466	2.3
432.817	2.33
433.169	2.23
433.521	2.32
433.872	2.37
434.224	2.26
434.576	2.28
434.927	2.15
435.279	2.1
435.63	1.97
435.981	2.01
436.333	2.04
436.684	2.03
437.035	1.87
437.387	1.96
437.738	1.97
438.089	2.01
438.44	2.02
438.791	1.83
439.142	1.96
439.493	1.95
439.844	2.03
440.195	1.82
440.545	1.74
440.896	1.81
441.247	1.89
441.598	1.92
441.948	1.94
442.299	1.81
442.649	1.72
443	1.82
443.35	1.68
443.701	1.69
444.051	1.67
444.401	1.82
444.752	1.79
445.102	1.76
445.452	1.75
445.802	1.76
446.152	1.82
446.502	1.84
446.852	1.85
447.202	1.76
447.552	1.95
447.902	1.8
448.252	1.88
448.602	3.41
448.952	3.5
449.301	3.53
449.651	3.43
450.001	3.39
450.35	3.46
450.7	3.4
451.049	3.41
451.399	3.47
451.748	3.51
452.097	3.75
452.447	3.77
452.796	3.77
453.145	3.67
453.494	3.78
453.843	3.78
454.193	3.83
454.542	3.92
454.891	3.87
455.239	3.78
455.588	3.7
455.937	3.85
456.286	3.82
456.635	3.92
456.984	4.01
457.332	2.23
457.681	2.29
458.03	2.1
458.378	2.15
458.727	2.19
459.075	2.21
459.423	2.34
459.772	2.4
460.12	2.51
460.468	2.51
460.817	2.49
461.165	2.48
461.513	2.45
461.861	2.65
462.209	2.8
462.557	2.78
462.905	2.71
463.253	2.82
463.601	2.88
463.949	2.99
464.297	3.09
464.644	3.16
464.992	3.13
465.34	3.2
465.687	3.15
466.035	3.14
466.383	3.03
466.73	3.23
467.078	3.21
467.425	3.25
467.772	3.21
468.12	3.22
468.467	3.18
468.814	3.15
469.161	3.17
469.508	3.05
469.856	3.01
470.203	3.08
470.55	2.84
470.897	2.84
471.243	2.86
471.59	2.88
471.937	2.83
472.284	2.88
472.631	2.82
472.977	2.67
473.324	2.7
473.671	2.66
474.017	2.52
474.364	2.52
474.71	2.46
475.057	2.58
475.403	2.6
475.749	2.66
476.096	2.63
476.442	2.65
476.788	2.64
477.134	2.68
477.48	2.6
477.826	2.59
478.172	2.67
478.518	2.7
478.864	2.71
479.21	2.85
479.556	2.78
479.902	2.83
480.248	2.92
480.593	2.88
480.939	2.79
481.285	2.83
481.63	2.93
481.976	2.97
482.321	2.95
482.667	3.13
483.012	3.2
483.357	3.19
483.703	3.21
484.048	3.28
484.393	3.41
484.738	3.53
485.084	3.63
485.429	3.73
485.774	3.94
486.119	4.09
486.464	4.3
486.808	4.47
487.153	4.68
487.498	4.87
487.843	5.01
488.188	5.2
488.532	5.36
488.877	5.58
489.222	5.91
489.566	6.2
489.911	6.51
490.255	6.84
490.6	7.16
490.944	7.54
491.288	7.77
491.633	8.15
491.977	8.62
492.321	9.12
492.665	9.51
493.009	9.82
493.353	10.22
493.697	10.67
494.041	11.17
494.385	11.58
494.729	12.17
495.073	12.78
495.417	13.42
495.76	13.99
496.104	14.62
496.448	15.25
496.791	15.98
497.135	16.66
497.479	17.31
497.822	18.16
498.165	18.97
498.509	19.82
498.852	20.57
499.196	21.43
499.539	22.29
499.882	23.19
500.225	24.04
500.568	24.96
500.911	25.63
501.254	26.46
501.597	27.41
501.94	28.26
502.283	29.04
502.626	29.78
502.969	30.66
503.312	31.43
503.654	32.08
503.997	32.76
504.34	33.65
504.682	34.5
505.025	35.4
505.367	36.15
505.71	36.85
506.052	37.69
506.395	38.22
506.737	38.93
507.079	39.75
507.421	40.54
507.764	41.17
508.106	41.93
508.448	42.61
508.79	43.22
509.132	43.72
509.474	44.43
509.816	45.05
510.158	45.63
510.499	46.23
510.841	46.96
511.183	47.46
511.525	47.96
511.866	48.56
512.208	49.27
512.549	49.93
512.891	50.44
513.232	50.95
513.574	51.38
513.915	51.88
514.256	52.47
514.598	52.93
514.939	53.56
515.28	54.15
515.621	54.35
515.962	54.69
516.303	55.38
516.644	55.59
516.985	55.98
517.326	56.44
517.667	56.84
518.008	57.05
518.349	57.35
518.69	57.79
519.03	57.95
519.371	58.18
519.712	58.62
520.052	58.73
520.393	58.91
520.733	59.12
521.074	59.2
521.414	59.54
521.754	59.71
522.095	59.99
522.435	60.38
522.775	60.61
523.115	60.89
523.455	61.15
523.795	61.23
524.135	61.54
524.475	61.78
524.815	61.76
525.155	62.05
525.495	62.13
525.835	62.3
526.175	62.54
526.514	62.85
526.854	62.96
527.194	63.09
527.533	63.64
527.873	63.85
528.212	64.2
528.552	64.7
528.891	64.95
529.23	65.29
529.57	65.48
529.909	65.58
530.248	65.8
530.587	65.83
530.927	65.83
531.266	65.98
531.605	66.19
531.944	66.23
532.283	66.41
532.621	66.66
532.96	66.97
533.299	67.28
533.638	67.7
533.977	67.89
534.315	68
534.654	68.1
534.992	68.17
535.331	68.24
535.67	68.25
536.008	68.42
536.346	68.4
536.685	68.36
537.023	68.33
537.361	68.46
537.7	68.51
538.038	68.62
538.376	68.78
538.714	68.86
539.052	69.07
539.39	69.31
539.728	69.52
540.066	69.74
540.404	69.83
540.741	69.86
541.079	69.75
541.417	69.65
541.755	69.53
542.092	69.33
542.43	69.37
542.767	69.33
543.105	69.32
543.442	69.39
543.78	69.72
544.117	69.75
544.454	69.38
544.792	69.63
545.129	69.69
545.466	70.01
545.803	70.13
546.14	69.95
546.477	70.16
546.814	69.98
547.151	69.87
547.488	69.74
547.825	69.62
548.162	69.49
548.499	69.37
548.835	69.33
549.172	69.36
549.509	69.35
549.845	69.46
550.182	69.44
550.518	69.34
550.855	69.45
551.191	69.61
551.528	69.56
551.864	69.5
552.2	69.41
552.537	69.56
552.873	69.9
553.209	69.9
553.545	69.89
553.881	69.75
554.217	69.72
554.553	69.91
554.889	69.82
555.225	70
555.561	70.16
555.896	70.2
556.232	70.15
556.568	70.22
556.903	70.26
557.239	70.19
557.575	70.31
557.91	70.42
558.245	70.46
558.581	70.76
558.916	70.89
559.252	70.88
559.587	70.71
559.922	71.04
560.257	71.46
560.592	71.44
560.928	71.48
561.263	71.34
561.598	71.47
561.933	71.58
562.267	71.53
562.602	71.66
562.937	71.64
563.272	71.85
563.607	72.05
563.941	72.26
564.276	72.37
564.611	72.79
564.945	73.04
565.28	72.9
565.614	72.88
565.949	72.84
566.283	72.98
566.617	73.18
566.951	73.16
567.286	73.31
567.62	73.34
567.954	73.75
568.288	73.82
568.622	73.8
568.956	73.8
569.29	73.7
569.624	73.88
569.958	73.94
570.292	74.08
570.626	74.26
570.959	74.28
571.293	74.43
571.627	74.47
571.96	74.49
572.294	74.32
572.627	74.34
572.961	74.12
573.294	74.17
573.627	74.19
573.961	74.38
574.294	74.48
574.627	74.41
574.961	74.42
575.294	74.29
575.627	74.2
575.96	74.19
576.293	74.06
576.626	73.98
576.959	73.8
577.292	73.92
577.624	74.02
577.957	74.14
578.29	74.26
578.623	74.33
578.955	74.27
579.288	74.28
579.62	74.26
579.953	74.28
580.285	74.23
580.618	74.38
580.95	74.61
581.282	74.63
581.615	74.74
581.947	74.81
582.279	74.8
582.611	74.94
582.943	75
583.275	74.96
583.607	75.02
583.939	75.15
584.271	75.25
584.603	75.23
584.935	75.4
585.267	75.59
585.598	75.7
585.93	75.91
586.262	75.87
586.593	75.6
586.925	75.33
587.256	75.34
587.588	75.24
587.919	75.07
588.25	74.98
588.582	74.92
588.913	75.05
589.244	74.97
589.575	75.23
589.907	75.1
590.238	75.19
590.569	75.21
590.9	75.16
591.231	75.16
591.562	75.28
591.892	75.38
592.223	75.31
592.554	75.36
592.885	75.44
593.215	75.3
593.546	75.31
593.877	75.05
594.207	74.9
594.538	74.77
594.868	74.92
595.198	75.11
595.529	75.12
595.859	75.21
596.189	75.52
596.52	75.65
596.85	75.77
597.18	75.62
597.51	75.49
597.84	75.29
598.17	75.31
598.5	75.42
598.83	75.44
599.16	75.47
599.489	75.52
599.819	75.38
600.149	75.29
600.479	75.12
600.808	74.9
601.138	74.92
601.467	74.78
601.797	74.71
602.126	74.88
602.456	74.9
602.785	75.04
603.114	74.88
603.443	74.81
603.773	74.91
604.102	74.91
604.431	74.72
604.76	74.59
605.089	74.59
605.418	74.63
605.747	74.52
606.076	74.52
606.405	74.47
606.733	74.37
607.062	74.17
607.391	73.96
607.72	73.79
608.048	73.67
608.377	73.8
608.705	74.03
609.034	74.13
609.362	74.18
609.69	74.32
610.019	74.32
610.347	74.16
610.675	73.86
611.004	73.73
611.332	73.88
611.66	74.02
611.988	73.66
612.316	73.79
612.644	73.64
612.972	73.64
613.3	73.41
613.627	73.22
613.955	73.4
614.283	73.23
614.611	73.36
614.938	73.65
615.266	73.82
615.593	73.76
615.921	73.81
616.248	73.97
616.576	73.93
616.903	73.65
617.23	73.49
617.558	73.42
617.885	73.53
618.212	73.53
618.539	73.49
618.866	73.95
619.193	73.76
619.52	73.73
619.847	73.22
620.174	73.43
620.501	73.38
620.828	73.57
621.155	73.65
621.481	73.66
621.808	73.86
622.135	73.95
622.461	74.51
622.788	74.36
623.114	74.02
623.441	74.19
623.767	74.26
624.093	74.21
624.42	74.01
624.746	74.29
625.072	74.88
625.398	75.35
625.725	75.19
626.051	75.03
626.377	75.26
626.703	75.04
627.029	74.63
627.354	74.68
627.68	74.82
628.006	75.26
628.332	74.68
628.658	74.49
628.983	74.53
629.309	74.65
629.634	74.81
629.96	74.98
630.285	74.56
630.611	74.61
630.936	74.6
631.262	74.32
631.587	74.23
631.912	74.47
632.237	74.98
632.562	75.47
632.887	75.37
633.213	75.2
633.538	75.08
633.863	74.83
634.187	75.17
634.512	75.25
634.837	75.53
635.162	76.01
635.487	76
635.811	75.41
636.136	75.95
636.461	76.96
636.785	76.46
637.11	76.78
637.434	76.34
637.758	76.46
638.083	76.11
638.407	76.63
638.731	76.32
639.056	75.95
639.38	76.25
639.704	76.65
640.028	76.92
640.352	76.69
640.676	76.46
641	76.3
641.324	76.12
641.648	76.19
641.972	76.5
642.295	76.33
642.619	76.4
642.943	76.27
643.266	75.67
643.59	75.82
643.913	76.49
644.237	75.27
644.56	75.16
644.884	75.29
645.207	75.13
645.53	75.52
645.854	76.03
646.177	76.42
646.5	76.75
646.823	76.92
647.146	77.33
647.469	77.53
647.792	76.61
648.115	76.85
648.438	76.94
648.761	78.97
649.084	78.55
649.406	77.64
649.729	76.35
650.052	76.01
650.374	75.73
650.697	75.51
651.019	75.68
651.342	75.8
651.664	75.74
651.987	75.51
652.309	75.8
652.631	75.74
652.953	75.85
653.276	75.53
653.598	75.53
653.92	75.39
654.242	75.49
654.564	75.35
654.886	75.36
655.208	75.18
655.53	75.17
655.851	75.37
656.173	75.22
656.495	75.32
656.816	74.36
657.138	73.85
657.46	73.82
657.781	75.16
658.103	75.71
658.424	76.66
658.746	77.87
659.067	77.91
659.388	77.78
659.709	77.87
660.031	78.53
660.352	78.1
660.673	77.36
660.994	77.72
661.315	78.74
661.636	78.3
661.957	77.38
662.278	76.06
662.599	75.17
662.919	74.34
663.24	74.42
663.561	74.18
663.881	73.9
664.202	72.88
664.523	72.69
