Data from T1_Reflection__97__18-07-24-592.txt Node

Date: Wed Jun 02 18:07:24 CEST 2021
User: mabdelazizm
Spectrometer: FLMS18565
Trigger mode: 0
Integration Time (sec): 2.000000E0
Scans to average: 1
Electric dark correction enabled: true
Nonlinearity correction enabled: false
Boxcar width: 12
XAxis mode: Wavelengths
Number of Pixels in Spectrum: 2048
>>>>>Begin Spectral Data<<<<<
179.071	31.52
179.452	-98.35
179.833	-1209.09
180.214	-42.86
180.595	-1112.12
180.977	191.25
181.358	263.9
181.739	121.33
182.12	51.05
182.501	52.16
182.882	44.76
183.262	60.74
183.643	276.43
184.024	27.12
184.405	36.51
184.786	37.86
185.166	27.62
185.547	20.14
185.927	18.38
186.308	18.85
186.689	21.42
187.069	24.37
187.449	23.68
187.83	22.98
188.21	18.83
188.59	19.86
188.971	20.27
189.351	16.1
189.731	16.46
190.111	19.71
190.491	21.78
190.871	17.9
191.251	15.47
191.631	14.99
192.011	15.05
192.391	16.04
192.771	19.04
193.151	18.86
193.531	16.48
193.91	15.96
194.29	15.23
194.67	14.5
195.049	13.55
195.429	11.19
195.808	10.63
196.188	11.19
196.567	10.53
196.946	8.02
197.326	10.5
197.705	9.93
198.084	10.55
198.464	8.58
198.843	10.14
199.222	10.46
199.601	9.04
199.98	7.91
200.359	8.4
200.738	9.21
201.117	7.9
201.496	7.65
201.875	7.48
202.254	5.13
202.632	5.02
203.011	5.55
203.39	5.21
203.768	4.97
204.147	5.73
204.525	6
204.904	6.32
205.282	7.11
205.661	6.47
206.039	7.12
206.418	7.2
206.796	6.19
207.174	7.06
207.552	6.95
207.931	6.26
208.309	5.58
208.687	4.98
209.065	6.07
209.443	6.76
209.821	7.39
210.199	7.56
210.577	7.41
210.954	6.54
211.332	6.02
211.71	6.73
212.088	7.12
212.465	6.41
212.843	6.42
213.221	6.91
213.598	7.1
213.976	6.76
214.353	6.41
214.731	5.26
215.108	5.52
215.485	5.4
215.863	5.46
216.24	5.46
216.617	6.04
216.994	5.65
217.371	6.77
217.749	6.38
218.126	6.4
218.503	5.77
218.88	5.17
219.256	4.86
219.633	4.58
220.01	4.79
220.387	5.49
220.764	5.7
221.14	5.5
221.517	5.05
221.894	5.17
222.27	4.86
222.647	4.59
223.023	4.2
223.4	4.24
223.776	4.37
224.153	4.72
224.529	4.59
224.905	4.72
225.282	4.73
225.658	4.54
226.034	3.74
226.41	3.81
226.786	3.61
227.162	3.84
227.538	3.93
227.914	3.95
228.29	4.03
228.666	3.79
229.042	3.61
229.418	3.45
229.793	3.37
230.169	3.19
230.545	2.94
230.92	2.76
231.296	2.59
231.672	2.7
232.047	2.68
232.422	2.63
232.798	2.48
233.173	2.34
233.549	2.27
233.924	2.1
234.299	1.81
234.674	1.77
235.05	1.62
235.425	1.71
235.8	1.58
236.175	1.53
236.55	1.45
236.925	1.31
237.3	1.36
237.675	1.39
238.049	1.55
238.424	1.66
238.799	1.7
239.174	1.59
239.548	1.67
239.923	1.65
240.297	1.76
240.672	1.75
241.046	1.7
241.421	1.68
241.795	1.57
242.17	1.62
242.544	1.63
242.918	1.49
243.293	1.47
243.667	1.47
244.041	1.46
244.415	1.48
244.789	1.6
245.163	1.61
245.537	1.54
245.911	1.48
246.285	1.5
246.659	1.41
247.033	1.41
247.406	1.25
247.78	1.16
248.154	1.19
248.528	1.25
248.901	1.21
249.275	1.21
249.648	1.2
250.022	1.27
250.395	1.28
250.769	1.19
251.142	1.26
251.515	1.24
251.888	1.27
252.262	1.4
252.635	1.43
253.008	1.44
253.381	1.43
253.754	1.48
254.127	1.35
254.5	1.32
254.873	1.34
255.246	1.47
255.619	1.41
255.992	1.4
256.364	1.37
256.737	1.42
257.11	1.48
257.483	1.46
257.855	1.47
258.228	1.46
258.6	1.52
258.973	1.57
259.345	1.54
259.718	1.54
260.09	1.58
260.462	1.53
260.834	1.5
261.207	1.46
261.579	1.39
261.951	1.35
262.323	1.36
262.695	1.33
263.067	1.25
263.439	1.25
263.811	1.31
264.183	1.32
264.555	1.24
264.927	1.33
265.298	1.32
265.67	1.27
266.042	1.24
266.413	1.17
266.785	1.13
267.156	1.04
267.528	0.99
267.899	0.97
268.271	0.86
268.642	0.89
269.013	0.9
269.385	0.9
269.756	0.88
270.127	0.89
270.498	0.99
270.87	1.04
271.241	1.09
271.612	1.1
271.983	1.13
272.354	1.12
272.724	1.18
273.095	1.23
273.466	1.25
273.837	1.24
274.208	1.22
274.578	1.21
274.949	1.27
275.32	1.24
275.69	1.25
276.061	1.33
276.431	1.33
276.802	1.35
277.172	1.34
277.542	1.4
277.913	1.33
278.283	1.27
278.653	1.23
279.023	1.32
279.394	1.34
279.764	1.31
280.134	1.26
280.504	1.27
280.874	1.17
281.244	1.08
281.614	1.1
281.983	1.02
282.353	1.01
282.723	0.99
283.093	1.01
283.462	0.99
283.832	1.01
284.202	0.98
284.571	1
284.941	1.04
285.31	0.96
285.68	0.94
286.049	0.94
286.418	0.98
286.788	1.08
287.157	1.11
287.526	1.14
287.895	1.14
288.264	1.14
288.633	1.09
289.002	0.96
289.371	0.99
289.74	0.86
290.109	0.92
290.478	1
290.847	1.01
291.216	1
291.585	0.89
291.953	0.83
292.322	0.75
292.691	0.67
293.059	0.65
293.428	0.63
293.796	0.59
294.165	0.57
294.533	0.6
294.901	0.69
295.27	0.72
295.638	0.66
296.006	0.51
296.374	0.5
296.743	0.51
297.111	0.53
297.479	0.5
297.847	0.52
298.215	0.53
298.583	0.47
298.95	0.46
299.318	0.46
299.686	0.37
300.054	0.41
300.422	0.45
300.789	0.5
301.157	0.51
301.525	0.56
301.892	0.6
302.26	0.54
302.627	0.55
302.994	0.55
303.362	0.56
303.729	0.55
304.097	0.59
304.464	0.53
304.831	0.52
305.198	0.53
305.565	0.48
305.932	0.42
306.299	0.44
306.666	0.41
307.033	0.41
307.4	0.53
307.767	0.55
308.134	0.62
308.501	0.66
308.867	0.68
309.234	0.61
309.601	0.68
309.967	0.62
310.334	0.66
310.701	0.73
311.067	0.75
311.433	0.78
311.8	0.81
312.166	0.8
312.533	0.79
312.899	0.82
313.265	0.82
313.631	0.85
313.997	0.82
314.363	0.77
314.729	0.75
315.096	0.73
315.461	0.71
315.827	0.69
316.193	0.76
316.559	0.65
316.925	0.69
317.291	0.65
317.656	0.64
318.022	0.68
318.388	0.72
318.753	0.67
319.119	0.74
319.484	0.78
319.85	0.77
320.215	0.82
320.581	0.85
320.946	0.79
321.311	0.82
321.676	0.79
322.042	0.78
322.407	0.67
322.772	0.69
323.137	0.75
323.502	0.84
323.867	0.8
324.232	0.83
324.597	0.78
324.962	0.8
325.327	0.76
325.691	0.8
326.056	0.75
326.421	0.81
326.785	0.79
327.15	0.86
327.514	0.87
327.879	0.9
328.243	0.86
328.608	0.75
328.972	0.68
329.337	0.61
329.701	0.63
330.065	0.66
330.429	0.64
330.794	0.63
331.158	0.55
331.522	0.59
331.886	0.54
332.25	0.56
332.614	0.54
332.978	0.58
333.342	0.57
333.705	0.66
334.069	0.74
334.433	0.73
334.797	0.77
335.16	0.73
335.524	0.72
335.887	0.69
336.251	0.59
336.614	0.6
336.978	0.56
337.341	0.54
337.705	0.6
338.068	0.69
338.431	0.7
338.794	0.66
339.158	0.58
339.521	0.57
339.884	0.54
340.247	0.56
340.61	0.56
340.973	0.5
341.336	0.49
341.699	0.47
342.062	0.51
342.424	0.58
342.787	0.48
343.15	0.37
343.512	0.29
343.875	0.21
344.238	0.31
344.6	0.28
344.963	0.28
345.325	0.3
345.688	0.25
346.05	0.23
346.412	0.28
346.775	0.27
347.137	0.17
347.499	0.2
347.861	0.2
348.223	0.28
348.585	0.29
348.947	0.34
349.309	0.3
349.671	0.27
350.033	0.39
350.395	0.35
350.757	0.31
351.118	0.25
351.48	0.16
351.842	0.16
352.203	0.24
352.565	0.3
352.927	0.28
353.288	0.27
353.65	0.25
354.011	0.29
354.372	0.3
354.734	0.32
355.095	0.28
355.456	0.17
355.817	0.18
356.179	0.24
356.54	0.23
356.901	0.23
357.262	0.2
357.623	0.2
357.984	0.25
358.345	0.25
358.705	0.26
359.066	0.19
359.427	0.13
359.788	0.14
360.148	0.22
360.509	0.28
360.87	0.36
361.23	0.32
361.591	0.39
361.951	0.48
362.312	0.39
362.672	0.36
363.032	0.34
363.393	0.34
363.753	0.36
364.113	0.43
364.473	0.52
364.833	0.47
365.193	0.35
365.553	0.29
365.913	0.33
366.273	0.39
366.633	0.43
366.993	0.33
367.353	0.45
367.713	0.42
368.072	0.4
368.432	0.46
368.792	0.45
369.151	0.37
369.511	0.38
369.87	0.38
370.23	0.37
370.589	0.31
370.949	0.22
371.308	0.3
371.667	0.29
372.027	0.22
372.386	0.25
372.745	0.21
373.104	0.15
373.463	0.17
373.822	0.15
374.181	0.29
374.54	0.31
374.899	0.28
375.258	0.18
375.617	0.14
375.975	0.15
376.334	-0.03
376.693	-0.04
377.052	0.04
377.41	0.07
377.769	0.04
378.127	0.05
378.486	0.04
378.844	0.06
379.202	0.03
379.561	-0.01
379.919	0.01
380.277	-0.12
380.636	-0.01
380.994	0.1
381.352	0.03
381.71	0.17
382.068	0.22
382.426	0.2
382.784	0.25
383.142	0.15
383.5	0.14
383.857	0.27
384.215	0.33
384.573	0.31
384.931	0.34
385.288	0.35
385.646	0.24
386.003	0.17
386.361	0.15
386.718	0.26
387.076	0.32
387.433	0.29
387.791	0.26
388.148	0.26
388.505	0.23
388.862	0.26
389.22	0.48
389.577	0.43
389.934	0.43
390.291	0.5
390.648	0.33
391.005	0.3
391.362	0.27
391.718	0.23
392.075	0.3
392.432	0.35
392.789	0.18
393.145	0.19
393.502	0.26
393.859	0.4
394.215	0.48
394.572	0.63
394.928	0.59
395.285	0.62
395.641	0.6
395.997	0.58
396.354	0.59
396.71	0.58
397.066	0.63
397.422	0.72
397.778	0.8
398.134	0.64
398.491	0.7
398.846	0.71
399.202	0.66
399.558	0.68
399.914	0.69
400.27	0.67
400.626	0.73
400.981	0.75
401.337	0.75
401.693	0.88
402.048	0.84
402.404	0.82
402.759	0.69
403.115	0.78
403.47	0.86
403.826	1
404.181	0.93
404.536	0.89
404.892	0.92
405.247	0.87
405.602	0.94
405.957	0.82
406.312	0.74
406.667	0.57
407.022	0.63
407.377	0.6
407.732	0.65
408.087	0.72
408.442	0.78
408.796	0.66
409.151	0.71
409.506	0.67
409.86	0.61
410.215	0.5
410.57	0.47
410.924	0.49
411.279	0.46
411.633	0.55
411.987	0.43
412.342	0.23
412.696	0.19
413.05	0.22
413.404	0.17
413.758	0.36
414.113	0.47
414.467	0.44
414.821	0.58
415.175	0.75
415.529	0.83
415.882	0.75
416.236	0.75
416.59	0.67
416.944	0.62
417.298	0.69
417.651	0.85
418.005	0.88
418.358	0.98
418.712	1.04
419.065	1.11
419.419	1.16
419.772	1.25
420.126	1.3
420.479	1.31
420.832	1.47
421.185	1.61
421.539	1.52
421.892	1.53
422.245	1.66
422.598	1.45
422.951	1.45
423.304	1.46
423.657	1.48
424.01	1.44
424.363	1.57
424.715	1.7
425.068	1.73
425.421	1.73
425.773	1.78
426.126	1.85
426.479	1.88
426.831	1.92
427.184	1.86
427.536	1.86
427.889	1.92
428.241	1.87
428.593	1.84
428.945	1.96
429.298	1.92
429.65	1.8
430.002	1.9
430.354	2.03
430.706	2.09
431.058	2.07
431.41	2.13
431.762	2.26
432.114	2.18
432.466	2.19
432.817	2.12
433.169	2.08
433.521	2.14
433.872	2.26
434.224	2.23
434.576	2.33
434.927	2.18
435.279	2.14
435.63	2.05
435.981	2.09
436.333	2.12
436.684	2.09
437.035	2.01
437.387	1.99
437.738	1.96
438.089	1.94
438.44	2.01
438.791	1.92
439.142	1.96
439.493	1.96
439.844	2.03
440.195	2.03
440.545	2
440.896	2.09
441.247	2.11
441.598	2.14
441.948	2.07
442.299	1.98
442.649	1.83
443	1.89
443.35	1.78
443.701	1.71
444.051	1.74
444.401	1.83
444.752	1.68
445.102	1.68
445.452	1.66
445.802	1.66
446.152	1.68
446.502	1.67
446.852	1.66
447.202	1.61
447.552	1.73
447.902	1.76
448.252	1.79
448.602	3.32
448.952	3.38
449.301	3.3
449.651	3.29
450.001	3.27
450.35	3.34
450.7	3.38
451.049	3.3
451.399	3.44
451.748	3.37
452.097	3.45
452.447	3.58
452.796	3.56
453.145	3.57
453.494	3.73
453.843	3.67
454.193	3.78
454.542	3.95
454.891	3.96
455.239	3.96
455.588	4
455.937	4.04
456.286	4.04
456.635	3.97
456.984	4.01
457.332	2.21
457.681	2.16
458.03	2.13
458.378	2.19
458.727	2.29
459.075	2.26
459.423	2.49
459.772	2.57
460.12	2.53
460.468	2.63
460.817	2.61
461.165	2.61
461.513	2.6
461.861	2.75
462.209	2.91
462.557	3.11
462.905	3.04
463.253	2.95
463.601	3.04
463.949	2.99
464.297	3.07
464.644	3.1
464.992	3.07
465.34	3.05
465.687	3.02
466.035	3.05
466.383	3.08
466.73	3.21
467.078	3.1
467.425	2.94
467.772	2.9
468.12	2.71
468.467	2.73
468.814	2.79
469.161	2.77
469.508	2.63
469.856	2.57
470.203	2.65
470.55	2.36
470.897	2.24
471.243	2.05
471.59	2.04
471.937	2.16
472.284	2.11
472.631	2.14
472.977	2.07
473.324	2.07
473.671	2.13
474.017	2.06
474.364	2.09
474.71	2.05
475.057	2.07
475.403	2.02
475.749	2.09
476.096	2.13
476.442	2.22
476.788	2.25
477.134	2.23
477.48	2.15
477.826	2.13
478.172	2.3
478.518	2.32
478.864	2.29
479.21	2.46
479.556	2.36
479.902	2.41
480.248	2.42
480.593	2.3
480.939	2.26
481.285	2.3
481.63	2.31
481.976	2.42
482.321	2.35
482.667	2.46
483.012	2.52
483.357	2.51
483.703	2.52
484.048	2.68
484.393	2.83
484.738	2.99
485.084	3.06
485.429	3.19
485.774	3.38
486.119	3.56
486.464	3.79
486.808	3.91
487.153	4.15
487.498	4.34
487.843	4.45
488.188	4.85
488.532	5.12
488.877	5.49
489.222	5.9
489.566	6.32
489.911	6.7
490.255	7.19
490.6	7.59
490.944	8.08
491.288	8.5
491.633	8.92
491.977	9.57
492.321	10.15
492.665	10.61
493.009	11.1
493.353	11.63
493.697	12.24
494.041	12.93
494.385	13.67
494.729	14.39
495.073	15.1
495.417	15.95
495.76	16.71
496.104	17.55
496.448	18.35
496.791	19.12
497.135	20.04
497.479	20.88
497.822	21.81
498.165	22.79
498.509	23.79
498.852	24.73
499.196	25.76
499.539	26.78
499.882	27.84
500.225	28.92
500.568	29.73
500.911	30.69
501.254	31.62
501.597	32.63
501.94	33.54
502.283	34.39
502.626	35.28
502.969	36.24
503.312	37.23
503.654	38.2
503.997	39.09
504.34	40.08
504.682	41.03
505.025	42.08
505.367	43
505.71	43.81
506.052	44.77
506.395	45.48
506.737	46.21
507.079	47.06
507.421	47.97
507.764	48.72
508.106	49.55
508.448	50.36
508.79	51.12
509.132	51.97
509.474	52.74
509.816	53.47
510.158	54.12
510.499	54.79
510.841	55.65
511.183	56.23
511.525	56.79
511.866	57.4
512.208	58.08
512.549	58.72
512.891	59.19
513.232	59.76
513.574	60.4
513.915	60.94
514.256	61.52
514.598	62.06
514.939	62.8
515.28	63.42
515.621	63.91
515.962	64.29
516.303	64.83
516.644	65.2
516.985	65.63
517.326	66.08
517.667	66.48
518.008	66.81
518.349	67.41
518.69	68.06
519.03	68.45
519.371	68.77
519.712	69.17
520.052	69.58
520.393	69.88
520.733	70.31
521.074	70.67
521.414	71.18
521.754	71.45
522.095	71.66
522.435	72.03
522.775	72.45
523.115	72.73
523.455	72.81
523.795	72.89
524.135	73.1
524.475	73.33
524.815	73.65
525.155	73.99
525.495	74.1
525.835	74.18
526.175	74.54
526.514	74.81
526.854	74.83
527.194	75.01
527.533	75.33
527.873	75.55
528.212	75.92
528.552	76.09
528.891	76.23
529.23	76.35
529.57	76.42
529.909	76.36
530.248	76.63
530.587	76.77
530.927	76.84
531.266	76.92
531.605	77.01
531.944	77.37
532.283	77.69
532.621	77.94
532.96	78.33
533.299	78.46
533.638	78.68
533.977	79.01
534.315	79.19
534.654	79.31
534.992	79.62
535.331	79.62
535.67	79.62
536.008	80.05
536.346	80.13
536.685	80.09
537.023	80.14
537.361	80.36
537.7	80.53
538.038	80.73
538.376	80.94
538.714	81.13
539.052	81.5
539.39	81.92
539.728	82.04
540.066	82.39
540.404	82.56
540.741	82.71
541.079	82.88
541.417	82.69
541.755	82.65
542.092	82.63
542.43	82.53
542.767	82.6
543.105	82.77
543.442	82.59
543.78	82.97
544.117	82.94
544.454	82.51
544.792	82.75
545.129	82.78
545.466	82.96
545.803	83.09
546.14	82.82
546.477	82.93
546.814	82.99
547.151	82.89
547.488	82.8
547.825	82.44
548.162	82.49
548.499	82.42
548.835	82.22
549.172	82.17
549.509	82.07
549.845	82.28
550.182	82.41
550.518	82.39
550.855	82.5
551.191	82.54
551.528	82.41
551.864	82.46
552.2	82.29
552.537	82.59
552.873	82.86
553.209	82.97
553.545	83.19
553.881	83.27
554.217	83.34
554.553	83.62
554.889	83.49
555.225	83.63
555.561	83.74
555.896	83.61
556.232	83.88
556.568	83.74
556.903	83.75
557.239	83.84
557.575	83.97
557.91	84.15
558.245	84.11
558.581	84.28
558.916	84.52
559.252	84.4
559.587	84.29
559.922	84.35
560.257	84.47
560.592	84.56
560.928	84.51
561.263	84.64
561.598	84.59
561.933	84.58
562.267	84.68
562.602	84.82
562.937	84.81
563.272	85.16
563.607	85.31
563.941	85.42
564.276	85.59
564.611	85.77
564.945	85.95
565.28	86.04
565.614	86.11
565.949	86.06
566.283	85.93
566.617	86.05
566.951	85.99
567.286	86.09
567.62	86.42
567.954	87.08
568.288	87.25
568.622	87.31
568.956	87.23
569.29	87.22
569.624	87.27
569.958	87.49
570.292	87.6
570.626	87.39
570.959	87.39
571.293	87.52
571.627	87.44
571.96	87.43
572.294	87.27
572.627	87.21
572.961	87.16
573.294	87.17
573.627	87.2
573.961	87.35
574.294	87.79
574.627	88.03
574.961	88.05
575.294	87.98
575.627	87.91
575.96	87.88
576.293	87.65
576.626	87.53
576.959	87.47
577.292	87.59
577.624	87.59
577.957	87.62
578.29	87.55
578.623	87.64
578.955	87.75
579.288	87.8
579.62	87.88
579.953	88.03
580.285	88.05
580.618	88.31
580.95	88.51
581.282	88.51
581.615	88.66
581.947	88.7
582.279	88.65
582.611	88.48
582.943	88.38
583.275	88.35
583.607	88.25
583.939	88.23
584.271	88.21
584.603	88.2
584.935	88.31
585.267	88.45
585.598	88.58
585.93	88.86
586.262	89.04
586.593	89.1
586.925	88.88
587.256	88.98
587.588	88.83
587.919	88.73
588.25	88.55
588.582	88.49
588.913	88.49
589.244	88.34
589.575	88.59
589.907	88.56
590.238	88.64
590.569	88.84
590.9	88.74
591.231	88.53
591.562	88.69
591.892	88.84
592.223	88.93
592.554	89.08
592.885	89.01
593.215	88.75
593.546	88.72
593.877	88.51
594.207	88.44
594.538	88.36
594.868	88.21
595.198	88.44
595.529	88.46
595.859	88.57
596.189	88.73
596.52	88.87
596.85	89.1
597.18	89.19
597.51	89.14
597.84	88.88
598.17	88.83
598.5	88.74
598.83	88.51
599.16	88.48
599.489	88.57
599.819	88.49
600.149	88.55
600.479	88.35
600.808	88.15
601.138	88.07
601.467	88.28
601.797	88.31
602.126	88.39
602.456	88.17
602.785	88.19
603.114	88.17
603.443	88.03
603.773	88.1
604.102	87.91
604.431	87.65
604.76	87.56
605.089	87.37
605.418	87.25
605.747	87.3
606.076	87.24
606.405	87.49
606.733	87.62
607.062	87.62
607.391	87.49
607.72	87.35
608.048	87.26
608.377	87.34
608.705	87.51
609.034	87.6
609.362	87.86
609.69	88.01
610.019	88.04
610.347	88.14
610.675	88.23
611.004	88.29
611.332	88.5
611.66	88.69
611.988	88.54
612.316	88.74
612.644	88.71
612.972	88.65
613.3	88.58
613.627	88.53
613.955	88.54
614.283	88.43
614.611	88.31
614.938	88.46
615.266	88.43
615.593	88.62
615.921	88.68
616.248	88.93
616.576	89.08
616.903	89.36
617.23	89.19
617.558	88.98
617.885	88.97
618.212	88.73
618.539	88.41
618.866	88.5
619.193	87.97
619.52	87.63
619.847	87.21
620.174	87.34
620.501	87.15
620.828	87.3
621.155	87.27
621.481	87.37
621.808	87.2
622.135	87.23
622.461	88.01
622.788	87.78
623.114	87.24
623.441	87.17
623.767	87.23
624.093	87.53
624.42	87.59
624.746	87.43
625.072	87.55
625.398	88.06
625.725	88.29
626.051	88.03
626.377	88.32
626.703	88.48
627.029	88.14
627.354	88.46
627.68	88.61
628.006	88.91
628.332	88.02
628.658	88.7
628.983	88.78
629.309	89.42
629.634	89.39
629.96	89.55
630.285	89.81
630.611	89.47
630.936	89.69
631.262	90.06
631.587	90.41
631.912	90.39
632.237	90.7
632.562	90.47
632.887	90.36
633.213	89.78
633.538	89.38
633.863	89.33
634.187	89.8
634.512	89.84
634.837	89.85
635.162	90.13
635.487	89.92
635.811	89.56
636.136	89.89
636.461	90.73
636.785	89.95
637.11	90.08
637.434	89.68
637.758	89.99
638.083	89.85
638.407	89.97
638.731	89.94
639.056	89.66
639.38	89.29
639.704	90.16
640.028	90.72
640.352	90.28
640.676	90.68
641	91.22
641.324	91.01
641.648	91
641.972	90.92
642.295	90.13
642.619	90.31
642.943	89.77
643.266	88.99
643.59	89.33
643.913	89.85
644.237	88.97
644.56	88.73
644.884	88.91
645.207	88.73
645.53	89.16
645.854	89.2
646.177	89.33
646.5	89.54
646.823	89.36
647.146	89.79
647.469	90.16
647.792	89.15
648.115	88.89
648.438	89.41
648.761	91.32
649.084	91.6
649.406	91.23
649.729	89.81
650.052	89.44
650.374	89.52
650.697	89.43
651.019	89.49
651.342	89.7
651.664	89.8
651.987	89.57
652.309	89.7
652.631	89.92
652.953	89.6
653.276	89.58
653.598	89.56
653.92	89.66
654.242	89.88
654.564	89.86
654.886	90.04
655.208	89.97
655.53	89.99
655.851	90.25
656.173	89.99
656.495	90.02
656.816	89.16
657.138	88.61
657.46	88.46
657.781	90.4
658.103	91.1
658.424	91.56
658.746	92.33
659.067	92.67
659.388	92.84
659.709	92.49
660.031	93.03
660.352	93.1
660.673	91.88
660.994	92.51
661.315	93.28
661.636	92.45
661.957	91.11
662.278	89.33
662.599	88.95
662.919	88.94
663.24	88.73
663.561	88.54
663.881	87.25
664.202	87.29
