Data from T1_Reflection__88__18-00-14-605.txt Node

Date: Wed Jun 02 18:00:14 CEST 2021
User: mabdelazizm
Spectrometer: FLMS18565
Trigger mode: 0
Integration Time (sec): 2.000000E0
Scans to average: 1
Electric dark correction enabled: true
Nonlinearity correction enabled: false
Boxcar width: 12
XAxis mode: Wavelengths
Number of Pixels in Spectrum: 2048
>>>>>Begin Spectral Data<<<<<
179.071	150.19
179.452	464.46
179.833	3060.61
180.214	352.38
180.595	-3969.7
180.977	300.38
181.358	559.02
181.739	536
182.12	349.9
182.501	293.02
182.882	118.64
183.262	132.52
183.643	729.28
184.024	-32.99
184.405	6.2
184.786	11.01
185.166	13.48
185.547	13.45
185.927	7.41
186.308	8.82
186.689	9.94
187.069	18.27
187.449	18.5
187.83	14.67
188.21	7.86
188.59	6.74
188.971	7.71
189.351	4.56
189.731	5.38
190.111	6.25
190.491	5.6
190.871	1.99
191.251	3.91
191.631	4.24
192.011	3.87
192.391	5.26
192.771	5.2
193.151	5.98
193.531	2.5
193.91	3.89
194.29	4.81
194.67	3.04
195.049	5.37
195.429	4.72
195.808	2.4
196.188	2.03
196.567	-0.18
196.946	0.19
197.326	2.6
197.705	2.63
198.084	2.57
198.464	1.88
198.843	3.72
199.222	5.46
199.601	6.19
199.98	5.87
200.359	5.85
200.738	6.49
201.117	6.89
201.496	6.23
201.875	4.8
202.254	4.12
202.632	3.92
203.011	5.31
203.39	2.88
203.768	2.58
204.147	4.24
204.525	3.27
204.904	4.4
205.282	5.31
205.661	4.7
206.039	4.89
206.418	3.99
206.796	3.36
207.174	4.14
207.552	4.54
207.931	4.68
208.309	4.43
208.687	3.34
209.065	3.86
209.443	4.31
209.821	4.88
210.199	4.41
210.577	3.6
210.954	3.29
211.332	3.03
211.71	3.27
212.088	3.75
212.465	2.61
212.843	3.36
213.221	4.15
213.598	3.63
213.976	3.57
214.353	3.01
214.731	2.23
215.108	2.13
215.485	1.87
215.863	2.38
216.24	2.41
216.617	3.24
216.994	2.65
217.371	2.89
217.749	2.11
218.126	2.04
218.503	1.3
218.88	0.95
219.256	0.8
219.633	0.72
220.01	1.35
220.387	2.12
220.764	2.8
221.14	2.87
221.517	2.59
221.894	2.64
222.27	3.15
222.647	3.04
223.023	3.1
223.4	2.82
223.776	3.15
224.153	3.43
224.529	3.53
224.905	4.07
225.282	4.11
225.658	4.17
226.034	3.46
226.41	3.95
226.786	3.97
227.162	4.38
227.538	4.35
227.914	4.34
228.29	4.56
228.666	4.43
229.042	4.53
229.418	4.15
229.793	4.17
230.169	3.96
230.545	3.9
230.92	3.93
231.296	4.08
231.672	3.8
232.047	3.59
232.422	3.6
232.798	3.58
233.173	3.32
233.549	3.33
233.924	3.25
234.299	3.02
234.674	2.96
235.05	2.78
235.425	2.98
235.8	2.78
236.175	2.72
236.55	2.63
236.925	2.49
237.3	2.51
237.675	2.53
238.049	2.72
238.424	2.73
238.799	2.84
239.174	2.74
239.548	2.77
239.923	2.76
240.297	2.83
240.672	2.85
241.046	2.96
241.421	2.95
241.795	2.81
242.17	2.82
242.544	2.86
242.918	2.74
243.293	2.79
243.667	2.85
244.041	2.94
244.415	3.03
244.789	3.11
245.163	3.18
245.537	3.11
245.911	3.09
246.285	3.28
246.659	3.25
247.033	3.21
247.406	3.12
247.78	3.08
248.154	3.07
248.528	3.15
248.901	3.18
249.275	3.16
249.648	3.1
250.022	3.03
250.395	3.04
250.769	3.05
251.142	3.08
251.515	3.07
251.888	3.12
252.262	3.26
252.635	3.26
253.008	3.25
253.381	3.16
253.754	3.17
254.127	3.08
254.5	3.02
254.873	3.06
255.246	3.06
255.619	2.92
255.992	2.91
256.364	2.9
256.737	2.9
257.11	2.92
257.483	2.96
257.855	2.9
258.228	2.87
258.6	2.89
258.973	2.95
259.345	3.02
259.718	2.93
260.09	2.94
260.462	2.93
260.834	2.94
261.207	2.84
261.579	2.8
261.951	2.72
262.323	2.7
262.695	2.69
263.067	2.64
263.439	2.63
263.811	2.59
264.183	2.6
264.555	2.62
264.927	2.67
265.298	2.65
265.67	2.65
266.042	2.68
266.413	2.63
266.785	2.6
267.156	2.54
267.528	2.52
267.899	2.51
268.271	2.39
268.642	2.34
269.013	2.47
269.385	2.43
269.756	2.42
270.127	2.4
270.498	2.5
270.87	2.54
271.241	2.61
271.612	2.58
271.983	2.6
272.354	2.64
272.724	2.62
273.095	2.65
273.466	2.64
273.837	2.61
274.208	2.57
274.578	2.57
274.949	2.55
275.32	2.47
275.69	2.43
276.061	2.48
276.431	2.49
276.802	2.49
277.172	2.53
277.542	2.51
277.913	2.46
278.283	2.35
278.653	2.37
279.023	2.41
279.394	2.45
279.764	2.37
280.134	2.31
280.504	2.28
280.874	2.23
281.244	2.13
281.614	2.01
281.983	1.95
282.353	1.99
282.723	1.95
283.093	2.01
283.462	2.01
283.832	2.01
284.202	1.99
284.571	2.01
284.941	1.99
285.31	1.97
285.68	1.99
286.049	1.99
286.418	1.99
286.788	2.15
287.157	2.19
287.526	2.15
287.895	2.15
288.264	2.1
288.633	2.02
289.002	2.05
289.371	2.02
289.74	1.93
290.109	1.95
290.478	1.93
290.847	1.99
291.216	2.03
291.585	1.9
291.953	1.89
292.322	1.84
292.691	1.77
293.059	1.78
293.428	1.75
293.796	1.7
294.165	1.73
294.533	1.68
294.901	1.67
295.27	1.69
295.638	1.67
296.006	1.51
296.374	1.48
296.743	1.52
297.111	1.49
297.479	1.54
297.847	1.54
298.215	1.45
298.583	1.45
298.95	1.43
299.318	1.46
299.686	1.54
300.054	1.59
300.422	1.57
300.789	1.63
301.157	1.61
301.525	1.53
301.892	1.59
302.26	1.51
302.627	1.51
302.994	1.53
303.362	1.54
303.729	1.54
304.097	1.54
304.464	1.49
304.831	1.48
305.198	1.49
305.565	1.5
305.932	1.49
306.299	1.46
306.666	1.42
307.033	1.42
307.4	1.51
307.767	1.49
308.134	1.57
308.501	1.59
308.867	1.51
309.234	1.44
309.601	1.46
309.967	1.43
310.334	1.43
310.701	1.49
311.067	1.47
311.433	1.5
311.8	1.5
312.166	1.48
312.533	1.46
312.899	1.49
313.265	1.47
313.631	1.49
313.997	1.43
314.363	1.4
314.729	1.34
315.096	1.32
315.461	1.38
315.827	1.38
316.193	1.46
316.559	1.44
316.925	1.4
317.291	1.36
317.656	1.29
318.022	1.33
318.388	1.36
318.753	1.36
319.119	1.4
319.484	1.49
319.85	1.44
320.215	1.51
320.581	1.51
320.946	1.46
321.311	1.5
321.676	1.52
322.042	1.5
322.407	1.46
322.772	1.43
323.137	1.44
323.502	1.49
323.867	1.4
324.232	1.37
324.597	1.36
324.962	1.31
325.327	1.25
325.691	1.21
326.056	1.23
326.421	1.23
326.785	1.32
327.15	1.38
327.514	1.37
327.879	1.38
328.243	1.35
328.608	1.2
328.972	1.22
329.337	1.13
329.701	1.12
330.065	1.23
330.429	1.16
330.794	1.12
331.158	1.09
331.522	1.14
331.886	1.16
332.25	1.2
332.614	1.14
332.978	1.2
333.342	1.19
333.705	1.21
334.069	1.18
334.433	1.18
334.797	1.16
335.16	1.14
335.524	1.12
335.887	1.06
336.251	0.96
336.614	0.95
336.978	0.89
337.341	0.93
337.705	0.98
338.068	1.04
338.431	1.02
338.794	1
339.158	0.95
339.521	1
339.884	0.99
340.247	0.98
340.61	0.94
340.973	0.93
341.336	0.85
341.699	0.77
342.062	0.81
342.424	0.78
342.787	0.66
343.15	0.71
343.512	0.58
343.875	0.61
344.238	0.65
344.6	0.64
344.963	0.63
345.325	0.67
345.688	0.62
346.05	0.64
346.412	0.65
346.775	0.69
347.137	0.59
347.499	0.69
347.861	0.73
348.223	0.71
348.585	0.78
348.947	0.73
349.309	0.75
349.671	0.76
350.033	0.82
350.395	0.81
350.757	0.88
351.118	0.84
351.48	0.91
351.842	0.92
352.203	0.98
352.565	1.04
352.927	1.05
353.288	1.05
353.65	1.12
354.011	1.1
354.372	1.11
354.734	1.2
355.095	1.21
355.456	1.17
355.817	1.14
356.179	1.19
356.54	1.2
356.901	1.19
357.262	1.23
357.623	1.1
357.984	1.18
358.345	1.14
358.705	1.13
359.066	1.07
359.427	1.04
359.788	1.05
360.148	1.07
360.509	1.06
360.87	1.11
361.23	1.09
361.591	1.23
361.951	1.24
362.312	1.21
362.672	1.17
363.032	1.17
363.393	1.15
363.753	1.16
364.113	1.19
364.473	1.25
364.833	1.24
365.193	1.19
365.553	1.13
365.913	1.13
366.273	1.15
366.633	1.2
366.993	1.13
367.353	1.15
367.713	1.19
368.072	1.17
368.432	1.25
368.792	1.32
369.151	1.36
369.511	1.36
369.87	1.4
370.23	1.41
370.589	1.31
370.949	1.27
371.308	1.32
371.667	1.41
372.027	1.43
372.386	1.49
372.745	1.46
373.104	1.35
373.463	1.37
373.822	1.28
374.181	1.31
374.54	1.33
374.899	1.36
375.258	1.3
375.617	1.29
375.975	1.36
376.334	1.31
376.693	1.25
377.052	1.29
377.41	1.28
377.769	1.2
378.127	1.14
378.486	1.15
378.844	1.16
379.202	1.06
379.561	1.08
379.919	1.13
380.277	1.06
380.636	1.04
380.994	1.08
381.352	1.07
381.71	1.12
382.068	1.19
382.426	1.11
382.784	1.22
383.142	1.23
383.5	1.24
383.857	1.29
384.215	1.31
384.573	1.28
384.931	1.39
385.288	1.37
385.646	1.3
386.003	1.25
386.361	1.36
386.718	1.55
387.076	1.6
387.433	1.58
387.791	1.65
388.148	1.66
388.505	1.69
388.862	1.61
389.22	1.74
389.577	1.63
389.934	1.67
390.291	1.72
390.648	1.68
391.005	1.65
391.362	1.68
391.718	1.72
392.075	1.68
392.432	1.73
392.789	1.67
393.145	1.7
393.502	1.7
393.859	1.65
394.215	1.69
394.572	1.78
394.928	1.83
395.285	1.75
395.641	1.64
395.997	1.62
396.354	1.71
396.71	1.73
397.066	1.84
397.422	1.89
397.778	1.96
398.134	1.88
398.491	2.04
398.846	1.97
399.202	1.89
399.558	1.86
399.914	1.83
400.27	1.89
400.626	1.83
400.981	1.86
401.337	1.83
401.693	1.91
402.048	1.87
402.404	1.92
402.759	1.85
403.115	1.96
403.47	2
403.826	2.11
404.181	2.04
404.536	2.07
404.892	2.15
405.247	2.17
405.602	2.05
405.957	1.97
406.312	1.89
406.667	1.97
407.022	1.95
407.377	1.91
407.732	1.99
408.087	2.03
408.442	2.09
408.796	2.15
409.151	2.04
409.506	2.07
409.86	2.08
410.215	2.02
410.57	1.92
410.924	1.9
411.279	1.93
411.633	2.03
411.987	1.93
412.342	1.91
412.696	1.78
413.05	1.95
413.404	1.86
413.758	2
414.113	2.04
414.467	2.2
414.821	2.32
415.175	2.37
415.529	2.32
415.882	2.29
416.236	2.31
416.59	2.23
416.944	2.21
417.298	2.31
417.651	2.34
418.005	2.45
418.358	2.55
418.712	2.61
419.065	2.6
419.419	2.74
419.772	2.86
420.126	2.85
420.479	2.86
420.832	3.02
421.185	3.12
421.539	3.13
421.892	3.09
422.245	3.26
422.598	3.17
422.951	3.16
423.304	3.13
423.657	3.16
424.01	3.13
424.363	3.24
424.715	3.4
425.068	3.41
425.421	3.47
425.773	3.48
426.126	3.55
426.479	3.68
426.831	3.75
427.184	3.79
427.536	3.85
427.889	3.98
428.241	3.98
428.593	3.97
428.945	4.09
429.298	4.11
429.65	4.07
430.002	4.19
430.354	4.28
430.706	4.27
431.058	4.27
431.41	4.27
431.762	4.28
432.114	4.28
432.466	4.21
432.817	4.24
433.169	4.22
433.521	4.23
433.872	4.33
434.224	4.39
434.576	4.5
434.927	4.3
435.279	4.22
435.63	4.1
435.981	3.97
436.333	3.92
436.684	3.86
437.035	3.87
437.387	3.91
437.738	3.91
438.089	3.93
438.44	4.04
438.791	3.95
439.142	4.02
439.493	3.97
439.844	3.96
440.195	3.98
440.545	4.02
440.896	3.99
441.247	4.06
441.598	4.15
441.948	4.17
442.299	4.08
442.649	4.03
443	3.99
443.35	3.97
443.701	4.05
444.051	4.13
444.401	4.18
444.752	4.16
445.102	4.16
445.452	4.31
445.802	4.25
446.152	4.13
446.502	4.05
446.852	4.11
447.202	3.93
447.552	3.97
447.902	3.84
448.252	3.92
448.602	5.51
448.952	5.58
449.301	5.64
449.651	5.7
450.001	5.63
450.35	5.71
450.7	5.68
451.049	5.66
451.399	5.7
451.748	5.6
452.097	5.77
452.447	5.81
452.796	5.7
453.145	5.72
453.494	5.81
453.843	5.75
454.193	5.74
454.542	5.82
454.891	5.98
455.239	5.99
455.588	5.92
455.937	6.06
456.286	6.17
456.635	6.23
456.984	6.12
457.332	4.38
457.681	4.33
458.03	4.28
458.378	4.31
458.727	4.46
459.075	4.51
459.423	4.68
459.772	4.85
460.12	5.04
460.468	5.19
460.817	5.11
461.165	5.16
461.513	5.31
461.861	5.54
462.209	5.72
462.557	5.93
462.905	5.81
463.253	5.86
463.601	5.88
463.949	5.97
464.297	6
464.644	6.09
464.992	6.02
465.34	6.15
465.687	6.32
466.035	6.23
466.383	6.24
466.73	6.14
467.078	6.06
467.425	6.02
467.772	5.94
468.12	5.86
468.467	5.85
468.814	5.7
469.161	5.75
469.508	5.6
469.856	5.55
470.203	5.43
470.55	5.19
470.897	5.2
471.243	5.05
471.59	5.01
471.937	4.95
472.284	4.98
472.631	4.97
472.977	4.96
473.324	4.88
473.671	4.82
474.017	4.76
474.364	4.69
474.71	4.7
475.057	4.69
475.403	4.73
475.749	4.82
476.096	4.75
476.442	4.75
476.788	4.7
477.134	4.62
477.48	4.58
477.826	4.56
478.172	4.69
478.518	4.62
478.864	4.7
479.21	4.82
479.556	4.73
479.902	4.74
480.248	4.82
480.593	4.83
480.939	4.81
481.285	4.85
481.63	4.93
481.976	4.96
482.321	5.03
482.667	5.14
483.012	5.21
483.357	5.3
483.703	5.36
484.048	5.58
484.393	5.71
484.738	5.86
485.084	5.97
485.429	6.2
485.774	6.44
486.119	6.67
486.464	6.93
486.808	7.15
487.153	7.48
487.498	7.79
487.843	7.96
488.188	8.31
488.532	8.62
488.877	8.97
489.222	9.39
489.566	9.81
489.911	10.21
490.255	10.58
490.6	11.13
490.944	11.64
491.288	12.01
491.633	12.58
491.977	13.11
492.321	13.79
492.665	14.19
493.009	14.77
493.353	15.34
493.697	15.93
494.041	16.52
494.385	17.17
494.729	17.87
495.073	18.51
495.417	19.22
495.76	19.95
496.104	20.59
496.448	21.37
496.791	22.18
497.135	22.99
497.479	23.8
497.822	24.64
498.165	25.47
498.509	26.4
498.852	27.29
499.196	28.01
499.539	28.91
499.882	29.85
500.225	30.69
500.568	31.51
500.911	32.15
501.254	33.09
501.597	33.95
501.94	34.79
502.283	35.63
502.626	36.45
502.969	37.14
503.312	37.81
503.654	38.58
503.997	39.38
504.34	40.16
504.682	41.1
505.025	42.04
505.367	42.64
505.71	43.35
506.052	44.21
506.395	44.83
506.737	45.5
507.079	46.33
507.421	47.05
507.764	47.89
508.106	48.59
508.448	49.33
508.79	49.9
509.132	50.42
509.474	51.14
509.816	51.68
510.158	52.21
510.499	52.83
510.841	53.52
511.183	54.02
511.525	54.67
511.866	55.31
512.208	55.98
512.549	56.49
512.891	56.99
513.232	57.32
513.574	57.66
513.915	58.31
514.256	58.92
514.598	59.12
514.939	59.71
515.28	60.14
515.621	60.3
515.962	60.7
516.303	61.03
516.644	61.3
516.985	61.64
517.326	62.09
517.667	62.55
518.008	62.65
518.349	62.98
518.69	63.4
519.03	63.43
519.371	63.54
519.712	63.96
520.052	64.2
520.393	64.27
520.733	64.37
521.074	64.45
521.414	64.67
521.754	64.88
522.095	65.19
522.435	65.45
522.775	65.61
523.115	66.15
523.455	66.22
523.795	66.17
524.135	66.26
524.475	66.48
524.815	66.78
525.155	66.99
525.495	67.08
525.835	67.11
526.175	67.36
526.514	67.71
526.854	67.93
527.194	67.95
527.533	68.35
527.873	68.55
528.212	68.66
528.552	68.9
528.891	69.16
529.23	69.36
529.57	69.49
529.909	69.59
530.248	69.7
530.587	69.82
530.927	69.77
531.266	69.77
531.605	69.78
531.944	69.88
532.283	70.44
532.621	70.8
532.96	71.15
533.299	71.13
533.638	71.34
533.977	71.59
534.315	71.66
534.654	71.78
534.992	71.79
535.331	71.83
535.67	71.93
536.008	72.24
536.346	72.16
536.685	72.27
537.023	72.2
537.361	72.23
537.7	72.25
538.038	72.47
538.376	72.54
538.714	72.75
539.052	72.72
539.39	72.96
539.728	73.17
540.066	73.33
540.404	73.66
540.741	73.53
541.079	73.52
541.417	73.27
541.755	73.18
542.092	73.07
542.43	72.91
542.767	72.98
543.105	72.89
543.442	73
543.78	73.11
544.117	73.1
544.454	72.92
544.792	73.12
545.129	73.2
545.466	73.42
545.803	73.64
546.14	73.58
546.477	73.65
546.814	73.68
547.151	73.75
547.488	73.89
547.825	73.87
548.162	73.87
548.499	73.95
548.835	73.67
549.172	73.76
549.509	73.78
549.845	73.78
550.182	73.86
550.518	73.95
550.855	73.94
551.191	74.17
551.528	74.19
551.864	74.15
552.2	74.1
552.537	74.3
552.873	74.24
553.209	74.33
553.545	74.11
553.881	74.07
554.217	74.01
554.553	74.49
554.889	74.57
555.225	74.59
555.561	74.43
555.896	74.3
556.232	74.26
556.568	74.24
556.903	73.94
557.239	74.05
557.575	73.99
557.91	74.15
558.245	74.4
558.581	74.77
558.916	74.87
559.252	75.1
559.587	74.95
559.922	75.03
560.257	75.37
560.592	75.47
560.928	75.47
561.263	75.81
561.598	75.97
561.933	76.11
562.267	76.22
562.602	76.43
562.937	76.32
563.272	76.49
563.607	76.67
563.941	76.86
564.276	77
564.611	77.5
564.945	77.53
565.28	77.69
565.614	77.83
565.949	77.9
566.283	77.87
566.617	77.73
566.951	77.6
567.286	77.59
567.62	77.41
567.954	77.64
568.288	77.75
568.622	77.42
568.956	77.2
569.29	77.09
569.624	77.07
569.958	77.09
570.292	77.18
570.626	77.08
570.959	77.15
571.293	77.16
571.627	77.13
571.96	77.19
572.294	77.12
572.627	77.01
572.961	76.64
573.294	76.7
573.627	76.78
573.961	76.73
574.294	76.91
574.627	77
574.961	77.18
575.294	77.12
575.627	77.13
575.96	77.16
576.293	77.04
576.626	76.9
576.959	77.03
577.292	77.2
577.624	77.18
577.957	77.18
578.29	77.22
578.623	77.23
578.955	77.31
579.288	77.31
579.62	77.36
579.953	77.41
580.285	77.32
580.618	77.33
580.95	77.5
581.282	77.64
581.615	77.79
581.947	77.78
582.279	77.81
582.611	77.7
582.943	77.67
583.275	77.45
583.607	77.49
583.939	77.42
584.271	77.5
584.603	77.5
584.935	77.59
585.267	77.7
585.598	77.72
585.93	78.12
586.262	78.19
586.593	78.04
586.925	77.84
587.256	77.87
587.588	77.51
587.919	77.49
588.25	77.41
588.582	77.52
588.913	77.68
589.244	77.59
589.575	77.71
589.907	77.58
590.238	77.61
590.569	77.67
590.9	77.75
591.231	77.65
591.562	77.87
591.892	78.03
592.223	78.09
592.554	78.25
592.885	78.33
593.215	78.19
593.546	78.02
593.877	78
594.207	77.81
594.538	77.94
594.868	77.9
595.198	78.22
595.529	78.13
595.859	78.42
596.189	78.48
596.52	78.48
596.85	78.36
597.18	78.3
597.51	78.44
597.84	78.2
598.17	78.14
598.5	78.17
598.83	78.19
599.16	78.13
599.489	78.11
599.819	78.02
600.149	77.98
600.479	77.73
600.808	77.57
601.138	77.52
601.467	77.59
601.797	77.79
602.126	77.74
602.456	77.69
602.785	77.49
603.114	77.64
603.443	77.39
603.773	77.71
604.102	77.58
604.431	77.39
604.76	77.42
605.089	77.53
605.418	77.61
605.747	77.3
606.076	77.29
606.405	77.33
606.733	77.25
607.062	77.21
607.391	77.18
607.72	77.06
608.048	76.89
608.377	76.64
608.705	76.87
609.034	76.88
609.362	76.85
609.69	76.94
610.019	76.71
610.347	76.78
610.675	76.55
611.004	76.45
611.332	76.61
611.66	76.88
611.988	76.44
612.316	76.52
612.644	76.51
612.972	76.6
613.3	76.38
613.627	76.18
613.955	76.32
614.283	76.17
614.611	76.31
614.938	76.51
615.266	76.52
615.593	76.48
615.921	76.46
616.248	76.7
616.576	76.98
616.903	77.06
617.23	76.88
617.558	77.2
617.885	77.06
618.212	77.15
618.539	76.91
618.866	77.38
619.193	77.42
619.52	77.13
619.847	76.8
620.174	76.92
620.501	76.95
620.828	76.58
621.155	76.21
621.481	76.17
621.808	76.22
622.135	76.43
622.461	77.15
622.788	76.94
623.114	76.62
623.441	76.38
623.767	76.47
624.093	76.69
624.42	76.62
624.746	76.71
625.072	76.65
625.398	77.02
625.725	76.84
626.051	76.73
626.377	77.02
626.703	76.94
627.029	76.58
627.354	76.48
627.68	76.54
628.006	76.52
628.332	76.09
628.658	76.2
628.983	76.93
629.309	77.57
629.634	77.82
629.96	77.78
630.285	77.5
630.611	77.19
630.936	77.74
631.262	77.9
631.587	78.1
631.912	77.69
632.237	77.92
632.562	78.19
632.887	77.51
633.213	77.81
633.538	77.85
633.863	77.82
634.187	78.25
634.512	77.79
634.837	77.93
635.162	78.07
635.487	78.18
635.811	77.82
636.136	78.61
636.461	79.28
636.785	78.97
637.11	78.77
637.434	78.16
637.758	78.27
638.083	78.28
638.407	78.57
638.731	78.3
639.056	77.71
639.38	77.28
639.704	77.82
640.028	79.05
640.352	78.91
640.676	78.89
641	79.66
641.324	79.36
641.648	79.12
641.972	79.05
642.295	79.43
642.619	80.1
642.943	80.48
643.266	80.33
643.59	80.08
643.913	80.53
644.237	79.52
644.56	79.21
644.884	79.39
645.207	79.3
645.53	79.96
645.854	80.61
646.177	80.45
646.5	80.46
646.823	80.43
647.146	80.54
647.469	81.07
647.792	80.58
648.115	79.75
648.438	80.79
648.761	82.45
649.084	80.87
649.406	80.14
649.729	78.74
650.052	78.34
650.374	77.96
650.697	77.78
651.019	77.77
651.342	77.79
651.664	78.05
651.987	77.88
652.309	78.06
652.631	78.43
652.953	78.24
653.276	78.07
653.598	77.72
653.92	77.61
654.242	77.65
654.564	77.74
654.886	77.82
655.208	77.61
655.53	77.6
655.851	77.53
656.173	77.66
656.495	77.33
656.816	76.35
657.138	76.56
657.46	76.24
657.781	77.85
658.103	78.48
658.424	79.4
658.746	80.06
659.067	80.26
659.388	79.84
659.709	79.19
660.031	79.57
660.352	79.42
660.673	77.91
660.994	78.21
661.315	79.9
661.636	80.36
661.957	79.57
662.278	79.15
662.599	78.27
662.919	78.18
663.24	78.69
663.561	77.93
663.881	77.92
664.202	77.41
664.523	77.46
664.843	77.12
