Data from T1_Reflection__98__18-07-50-591.txt Node

Date: Wed Jun 02 18:07:50 CEST 2021
User: mabdelazizm
Spectrometer: FLMS18565
Trigger mode: 0
Integration Time (sec): 2.000000E0
Scans to average: 1
Electric dark correction enabled: true
Nonlinearity correction enabled: false
Boxcar width: 12
XAxis mode: Wavelengths
Number of Pixels in Spectrum: 2048
>>>>>Begin Spectral Data<<<<<
179.071	115.56
179.452	271.9
179.833	1918.18
180.214	438.1
180.595	-5790.91
180.977	461.98
181.358	736.1
181.739	500
182.12	263.67
182.501	227.57
182.882	89.45
183.262	129.45
183.643	601.9
184.024	-23.12
184.405	22.87
184.786	37.67
185.166	24.05
185.547	22.89
185.927	25.86
186.308	23.24
186.689	27.35
187.069	24.56
187.449	21.23
187.83	22.31
188.21	14.61
188.59	12.9
188.971	13.83
189.351	14.98
189.731	17.96
190.111	20.99
190.491	22.02
190.871	16.85
191.251	17.49
191.631	16.6
192.011	15.24
192.391	15.27
192.771	17.08
193.151	16.76
193.531	15.37
193.91	13.57
194.29	12.52
194.67	13.02
195.049	11.9
195.429	11.05
195.808	10.85
196.188	9.8
196.567	10.88
196.946	11.25
197.326	11.44
197.705	12.68
198.084	13.33
198.464	12.56
198.843	11.83
199.222	12.68
199.601	11.86
199.98	11.05
200.359	10.63
200.738	11.54
201.117	11.11
201.496	11.76
201.875	11.17
202.254	10.44
202.632	9.53
203.011	9.29
203.39	8.83
203.768	8.88
204.147	9.5
204.525	9.28
204.904	8.37
205.282	8.98
205.661	7.59
206.039	8.63
206.418	7.48
206.796	7.75
207.174	7.31
207.552	7.64
207.931	6.91
208.309	6.33
208.687	5.97
209.065	6.04
209.443	6.36
209.821	7.1
210.199	5.81
210.577	5.1
210.954	4.16
211.332	3.26
211.71	3.44
212.088	4.18
212.465	4.02
212.843	5.16
213.221	5.49
213.598	5.49
213.976	5.63
214.353	5.78
214.731	4.42
215.108	4.76
215.485	4.19
215.863	5.14
216.24	4.67
216.617	4.82
216.994	3.85
217.371	4.19
217.749	4.51
218.126	3.86
218.503	3.73
218.88	3.75
219.256	3.62
219.633	3.57
220.01	4.51
220.387	4.76
220.764	5.05
221.14	5.12
221.517	4.85
221.894	4.72
222.27	4.29
222.647	4.02
223.023	3.83
223.4	3.65
223.776	3.55
224.153	4.26
224.529	4.37
224.905	4.27
225.282	4.23
225.658	4.34
226.034	4.13
226.41	4.22
226.786	4.11
227.162	4.02
227.538	4.02
227.914	4.17
228.29	4.23
228.666	4.11
229.042	4.05
229.418	3.8
229.793	4.08
230.169	3.95
230.545	3.59
230.92	3.62
231.296	3.62
231.672	3.69
232.047	3.68
232.422	3.7
232.798	3.64
233.173	3.65
233.549	3.58
233.924	3.52
234.299	3.51
234.674	3.47
235.05	3.31
235.425	3.32
235.8	3.43
236.175	3.47
236.55	3.45
236.925	3.37
237.3	3.32
237.675	3.23
238.049	3.3
238.424	3.32
238.799	3.28
239.174	3.21
239.548	3.31
239.923	3.35
240.297	3.4
240.672	3.37
241.046	3.34
241.421	3.32
241.795	3.23
242.17	3.32
242.544	3.31
242.918	3.19
243.293	3.18
243.667	3.13
244.041	3.19
244.415	3.2
244.789	3.28
245.163	3.24
245.537	3.26
245.911	3.27
246.285	3.46
246.659	3.48
247.033	3.59
247.406	3.55
247.78	3.57
248.154	3.65
248.528	3.61
248.901	3.61
249.275	3.72
249.648	3.73
250.022	3.79
250.395	3.79
250.769	3.79
251.142	3.86
251.515	3.84
251.888	3.88
252.262	4
252.635	4.04
253.008	4.02
253.381	3.93
253.754	3.98
254.127	3.87
254.5	3.81
254.873	3.73
255.246	3.73
255.619	3.65
255.992	3.59
256.364	3.48
256.737	3.43
257.11	3.39
257.483	3.37
257.855	3.35
258.228	3.38
258.6	3.33
258.973	3.39
259.345	3.38
259.718	3.32
260.09	3.26
260.462	3.21
260.834	3.18
261.207	3.15
261.579	3.04
261.951	2.96
262.323	3.01
262.695	3.01
263.067	2.98
263.439	2.97
263.811	3.02
264.183	3.05
264.555	3.1
264.927	3.09
265.298	3.03
265.67	3.07
266.042	3.07
266.413	3.02
266.785	2.96
267.156	2.86
267.528	2.74
267.899	2.69
268.271	2.52
268.642	2.47
269.013	2.51
269.385	2.48
269.756	2.48
270.127	2.44
270.498	2.52
270.87	2.56
271.241	2.57
271.612	2.58
271.983	2.59
272.354	2.55
272.724	2.6
273.095	2.6
273.466	2.64
273.837	2.63
274.208	2.66
274.578	2.63
274.949	2.56
275.32	2.55
275.69	2.64
276.061	2.68
276.431	2.76
276.802	2.8
277.172	2.83
277.542	2.84
277.913	2.8
278.283	2.81
278.653	2.84
279.023	2.86
279.394	2.85
279.764	2.76
280.134	2.74
280.504	2.76
280.874	2.63
281.244	2.54
281.614	2.49
281.983	2.46
282.353	2.49
282.723	2.41
283.093	2.33
283.462	2.28
283.832	2.33
284.202	2.43
284.571	2.46
284.941	2.45
285.31	2.45
285.68	2.45
286.049	2.4
286.418	2.37
286.788	2.58
287.157	2.59
287.526	2.57
287.895	2.54
288.264	2.51
288.633	2.57
289.002	2.59
289.371	2.57
289.74	2.53
290.109	2.57
290.478	2.59
290.847	2.65
291.216	2.65
291.585	2.55
291.953	2.52
292.322	2.58
292.691	2.57
293.059	2.57
293.428	2.46
293.796	2.37
294.165	2.31
294.533	2.32
294.901	2.27
295.27	2.31
295.638	2.35
296.006	2.12
296.374	2.1
296.743	2.08
297.111	2.04
297.479	2
297.847	1.96
298.215	1.89
298.583	1.86
298.95	1.81
299.318	1.76
299.686	1.72
300.054	1.69
300.422	1.65
300.789	1.71
301.157	1.69
301.525	1.64
301.892	1.58
302.26	1.57
302.627	1.58
302.994	1.59
303.362	1.59
303.729	1.48
304.097	1.53
304.464	1.53
304.831	1.41
305.198	1.41
305.565	1.41
305.932	1.42
306.299	1.47
306.666	1.51
307.033	1.49
307.4	1.6
307.767	1.62
308.134	1.64
308.501	1.7
308.867	1.74
309.234	1.74
309.601	1.75
309.967	1.61
310.334	1.71
310.701	1.7
311.067	1.75
311.433	1.73
311.8	1.76
312.166	1.79
312.533	1.8
312.899	1.78
313.265	1.78
313.631	1.8
313.997	1.81
314.363	1.73
314.729	1.66
315.096	1.59
315.461	1.58
315.827	1.55
316.193	1.61
316.559	1.56
316.925	1.6
317.291	1.61
317.656	1.56
318.022	1.53
318.388	1.54
318.753	1.51
319.119	1.67
319.484	1.62
319.85	1.64
320.215	1.69
320.581	1.65
320.946	1.61
321.311	1.66
321.676	1.62
322.042	1.67
322.407	1.61
322.772	1.57
323.137	1.63
323.502	1.72
323.867	1.73
324.232	1.76
324.597	1.67
324.962	1.58
325.327	1.52
325.691	1.49
326.056	1.44
326.421	1.42
326.785	1.49
327.15	1.6
327.514	1.62
327.879	1.64
328.243	1.54
328.608	1.48
328.972	1.44
329.337	1.33
329.701	1.3
330.065	1.35
330.429	1.28
330.794	1.32
331.158	1.32
331.522	1.39
331.886	1.37
332.25	1.35
332.614	1.35
332.978	1.4
333.342	1.35
333.705	1.46
334.069	1.53
334.433	1.52
334.797	1.54
335.16	1.5
335.524	1.44
335.887	1.37
336.251	1.2
336.614	1.13
336.978	1.09
337.341	1.08
337.705	1.15
338.068	1.27
338.431	1.2
338.794	1.22
339.158	1.16
339.521	1.14
339.884	1.01
340.247	1.02
340.61	0.96
340.973	0.95
341.336	0.98
341.699	0.94
342.062	0.96
342.424	0.99
342.787	0.95
343.15	0.89
343.512	0.81
343.875	0.76
344.238	0.79
344.6	0.88
344.963	0.94
345.325	1.01
345.688	0.97
346.05	0.97
346.412	1.06
346.775	1.05
347.137	0.92
347.499	1.02
347.861	1
348.223	1.01
348.585	1.07
348.947	1.14
349.309	1.19
349.671	1.21
350.033	1.3
350.395	1.32
350.757	1.3
351.118	1.24
351.48	1.26
351.842	1.26
352.203	1.32
352.565	1.45
352.927	1.41
353.288	1.45
353.65	1.48
354.011	1.44
354.372	1.39
354.734	1.48
355.095	1.53
355.456	1.41
355.817	1.41
356.179	1.46
356.54	1.47
356.901	1.51
357.262	1.46
357.623	1.35
357.984	1.37
358.345	1.33
358.705	1.37
359.066	1.26
359.427	1.2
359.788	1.14
360.148	1.22
360.509	1.26
360.87	1.26
361.23	1.27
361.591	1.3
361.951	1.3
362.312	1.21
362.672	1.17
363.032	1.14
363.393	1.15
363.753	1.17
364.113	1.16
364.473	1.19
364.833	1.12
365.193	0.99
365.553	0.96
365.913	0.97
366.273	1.08
366.633	1.19
366.993	1.16
367.353	1.18
367.713	1.06
368.072	1.1
368.432	1.15
368.792	1.25
369.151	1.26
369.511	1.26
369.87	1.22
370.23	1.21
370.589	1.19
370.949	1.15
371.308	1.17
371.667	1.18
372.027	1.23
372.386	1.29
372.745	1.27
373.104	1.28
373.463	1.3
373.822	1.29
374.181	1.41
374.54	1.43
374.899	1.41
375.258	1.32
375.617	1.22
375.975	1.23
376.334	1.12
376.693	1.23
377.052	1.26
377.41	1.29
377.769	1.22
378.127	1.15
378.486	1.08
378.844	1.11
379.202	1.05
379.561	0.9
379.919	1
380.277	0.99
380.636	1.02
380.994	1.06
381.352	1.05
381.71	1.08
382.068	1.09
382.426	1.09
382.784	1.2
383.142	1.17
383.5	1.16
383.857	1.24
384.215	1.35
384.573	1.45
384.931	1.51
385.288	1.49
385.646	1.35
386.003	1.37
386.361	1.42
386.718	1.48
387.076	1.56
387.433	1.52
387.791	1.51
388.148	1.53
388.505	1.57
388.862	1.55
389.22	1.67
389.577	1.63
389.934	1.69
390.291	1.8
390.648	1.83
391.005	1.76
391.362	1.81
391.718	1.77
392.075	1.71
392.432	1.71
392.789	1.59
393.145	1.59
393.502	1.52
393.859	1.57
394.215	1.53
394.572	1.6
394.928	1.56
395.285	1.49
395.641	1.54
395.997	1.47
396.354	1.53
396.71	1.6
397.066	1.66
397.422	1.77
397.778	1.77
398.134	1.72
398.491	1.72
398.846	1.64
399.202	1.58
399.558	1.54
399.914	1.65
400.27	1.65
400.626	1.66
400.981	1.72
401.337	1.72
401.693	1.92
402.048	1.85
402.404	1.89
402.759	1.83
403.115	1.99
403.47	2.08
403.826	2.12
404.181	2.07
404.536	1.99
404.892	2.03
405.247	2.04
405.602	2.04
405.957	2.05
406.312	2.01
406.667	1.99
407.022	2.02
407.377	2.1
407.732	2.17
408.087	2.22
408.442	2.25
408.796	2.15
409.151	2.19
409.506	2.17
409.86	2.16
410.215	2.12
410.57	2.03
410.924	1.99
411.279	1.95
411.633	1.99
411.987	2.03
412.342	1.88
412.696	1.85
413.05	1.88
413.404	1.84
413.758	1.98
414.113	1.99
414.467	1.99
414.821	1.96
415.175	2.08
415.529	2.12
415.882	2.01
416.236	1.85
416.59	1.86
416.944	1.8
417.298	1.8
417.651	1.87
418.005	1.77
418.358	1.85
418.712	1.9
419.065	1.86
419.419	1.88
419.772	1.98
420.126	2.1
420.479	2.16
420.832	2.16
421.185	2.24
421.539	2.24
421.892	2.22
422.245	2.32
422.598	2.19
422.951	2.2
423.304	2.22
423.657	2.26
424.01	2.14
424.363	2.29
424.715	2.32
425.068	2.35
425.421	2.25
425.773	2.25
426.126	2.32
426.479	2.34
426.831	2.55
427.184	2.55
427.536	2.56
427.889	2.67
428.241	2.65
428.593	2.65
428.945	2.63
429.298	2.47
429.65	2.39
430.002	2.51
430.354	2.46
430.706	2.5
431.058	2.52
431.41	2.57
431.762	2.69
432.114	2.61
432.466	2.52
432.817	2.64
433.169	2.5
433.521	2.62
433.872	2.75
434.224	2.75
434.576	2.74
434.927	2.68
435.279	2.63
435.63	2.51
435.981	2.47
436.333	2.54
436.684	2.48
437.035	2.44
437.387	2.3
437.738	2.23
438.089	2.34
438.44	2.37
438.791	2.32
439.142	2.45
439.493	2.46
439.844	2.47
440.195	2.43
440.545	2.37
440.896	2.46
441.247	2.58
441.598	2.54
441.948	2.48
442.299	2.44
442.649	2.36
443	2.33
443.35	2.37
443.701	2.28
444.051	2.36
444.401	2.4
444.752	2.32
445.102	2.18
445.452	2.28
445.802	2.26
446.152	2.4
446.502	2.55
446.852	2.61
447.202	2.64
447.552	2.73
447.902	2.66
448.252	2.68
448.602	3.19
448.952	3.25
449.301	3.26
449.651	3.16
450.001	3.1
450.35	3.2
450.7	3.17
451.049	3
451.399	3.09
451.748	3.16
452.097	3.19
452.447	3.31
452.796	3.3
453.145	3.25
453.494	3.37
453.843	3.42
454.193	3.46
454.542	3.63
454.891	3.62
455.239	3.44
455.588	3.37
455.937	3.4
456.286	3.42
456.635	3.45
456.984	3.48
457.332	2.98
457.681	2.9
458.03	2.97
458.378	3.02
458.727	3.15
459.075	3.13
459.423	3.34
459.772	3.57
460.12	3.67
460.468	3.77
460.817	3.83
461.165	3.79
461.513	3.64
461.861	3.68
462.209	3.64
462.557	3.66
462.905	3.53
463.253	3.52
463.601	3.55
463.949	3.65
464.297	3.66
464.644	3.69
464.992	3.63
465.34	3.68
465.687	3.76
466.035	3.7
466.383	3.79
466.73	3.65
467.078	3.62
467.425	3.59
467.772	3.56
468.12	3.55
468.467	3.58
468.814	3.55
469.161	3.46
469.508	3.25
469.856	3.22
470.203	3.33
470.55	3.25
470.897	3.41
471.243	3.36
471.59	3.32
471.937	3.35
472.284	3.4
472.631	3.36
472.977	3.43
473.324	3.45
473.671	3.42
474.017	3.36
474.364	3.29
474.71	3.24
475.057	3.34
475.403	3.32
475.749	3.4
476.096	3.35
476.442	3.34
476.788	3.34
477.134	3.26
477.48	3.14
477.826	3.1
478.172	3.29
478.518	3.3
478.864	3.27
479.21	3.27
479.556	3.12
479.902	3.16
480.248	3.25
480.593	3.21
480.939	3.14
481.285	3.13
481.63	3.12
481.976	3.11
482.321	3.2
482.667	3.31
483.012	3.36
483.357	3.42
483.703	3.38
484.048	3.58
484.393	3.7
484.738	3.85
485.084	3.87
485.429	3.95
485.774	4.23
486.119	4.39
486.464	4.6
486.808	4.77
487.153	5.03
487.498	5.27
487.843	5.54
488.188	5.86
488.532	6.09
488.877	6.44
489.222	6.85
489.566	7.24
489.911	7.67
490.255	7.97
490.6	8.46
490.944	8.81
491.288	9.14
491.633	9.53
491.977	10.07
492.321	10.68
492.665	11.15
493.009	11.69
493.353	12.25
493.697	12.88
494.041	13.55
494.385	14.12
494.729	14.86
495.073	15.67
495.417	16.37
495.76	17.07
496.104	17.86
496.448	18.69
496.791	19.54
497.135	20.39
497.479	21.19
497.822	22.08
498.165	23.01
498.509	23.97
498.852	24.94
499.196	25.87
499.539	26.92
499.882	27.86
500.225	28.86
500.568	29.77
500.911	30.57
501.254	31.46
501.597	32.38
501.94	33.26
502.283	34.07
502.626	34.93
502.969	35.73
503.312	36.53
503.654	37.34
503.997	38.27
504.34	39.18
504.682	40.05
505.025	40.95
505.367	41.72
505.71	42.46
506.052	43.41
506.395	44.02
506.737	44.8
507.079	45.7
507.421	46.45
507.764	47.29
508.106	48
508.448	48.79
508.79	49.51
509.132	50.05
509.474	50.81
509.816	51.52
510.158	51.99
510.499	52.62
510.841	53.42
511.183	54.02
511.525	54.58
511.866	55.26
512.208	55.9
512.549	56.36
512.891	56.8
513.232	57.39
513.574	57.83
513.915	58.43
514.256	59.08
514.598	59.48
514.939	59.99
515.28	60.41
515.621	60.71
515.962	61.19
516.303	61.52
516.644	61.85
516.985	62.21
517.326	62.65
517.667	63.21
518.008	63.51
518.349	63.9
518.69	64.58
519.03	64.8
519.371	64.99
519.712	65.31
520.052	65.72
520.393	65.95
520.733	66.19
521.074	66.35
521.414	66.78
521.754	66.87
522.095	67.21
522.435	67.39
522.775	67.71
523.115	67.95
523.455	68.33
523.795	68.49
524.135	68.52
524.475	68.76
524.815	68.97
525.155	69.09
525.495	69.26
525.835	69.39
526.175	69.46
526.514	69.71
526.854	69.87
527.194	69.86
527.533	70.29
527.873	70.6
528.212	70.8
528.552	71.03
528.891	71.18
529.23	71.44
529.57	71.75
529.909	71.85
530.248	72.23
530.587	72.42
530.927	72.64
531.266	72.64
531.605	72.7
531.944	72.86
532.283	73.15
532.621	73.49
532.96	73.75
533.299	74.08
533.638	74.5
533.977	74.94
534.315	75.04
534.654	75.35
534.992	75.68
535.331	75.65
535.67	75.88
536.008	76.12
536.346	76.14
536.685	76.37
537.023	76.34
537.361	76.51
537.7	76.41
538.038	76.55
538.376	76.73
538.714	76.77
539.052	76.81
539.39	76.93
539.728	77.1
540.066	77.4
540.404	77.43
540.741	77.38
541.079	77.36
541.417	77.51
541.755	77.29
542.092	77.3
542.43	77.09
542.767	77.18
543.105	77.06
543.442	76.8
543.78	77.05
544.117	77.19
544.454	76.98
544.792	77.07
545.129	76.97
545.466	77.31
545.803	77.49
546.14	77.49
546.477	77.57
546.814	77.54
547.151	77.56
547.488	77.62
547.825	77.53
548.162	77.41
548.499	77.48
548.835	77.47
549.172	77.61
549.509	77.58
549.845	77.44
550.182	77.44
550.518	77.28
550.855	77.53
551.191	77.45
551.528	77.47
551.864	77.61
552.2	77.5
552.537	77.38
552.873	77.75
553.209	77.98
553.545	77.92
553.881	77.82
554.217	77.73
554.553	77.94
554.889	77.9
555.225	77.91
555.561	78.01
555.896	77.78
556.232	77.86
556.568	77.87
556.903	77.91
557.239	77.96
557.575	77.93
557.91	78.17
558.245	78.34
558.581	78.68
558.916	78.99
559.252	78.93
559.587	78.91
559.922	79.02
560.257	79.15
560.592	79.2
560.928	79.36
561.263	79.1
561.598	79.27
561.933	79.42
562.267	79.41
562.602	79.54
562.937	79.53
563.272	79.78
563.607	80
563.941	80.16
564.276	80.37
564.611	80.62
564.945	80.8
565.28	80.69
565.614	80.62
565.949	80.72
566.283	80.77
566.617	80.85
566.951	80.78
567.286	80.76
567.62	80.76
567.954	81.04
568.288	81.22
568.622	81.21
568.956	81.15
569.29	81.08
569.624	81.08
569.958	81.1
570.292	81.17
570.626	81.2
570.959	81.19
571.293	81.44
571.627	81.49
571.96	81.54
572.294	81.38
572.627	81.41
572.961	81.48
573.294	81.61
573.627	81.67
573.961	81.76
574.294	81.96
574.627	82.03
574.961	82.15
575.294	82.25
575.627	82.21
575.96	82.19
576.293	82.22
576.626	82.2
576.959	82.16
577.292	82.25
577.624	82.22
577.957	82.39
578.29	82.59
578.623	82.69
578.955	82.75
579.288	82.87
579.62	82.76
579.953	82.86
580.285	82.79
580.618	82.95
580.95	83.15
581.282	83.09
581.615	83.13
581.947	83.16
582.279	83.09
582.611	83.07
582.943	83.05
583.275	82.96
583.607	82.99
583.939	82.95
584.271	83.13
584.603	83.09
584.935	83.12
585.267	83.23
585.598	83.29
585.93	83.57
586.262	83.65
586.593	83.41
586.925	83.24
587.256	83.24
587.588	83.11
587.919	83.15
588.25	82.9
588.582	82.82
588.913	82.78
589.244	82.59
589.575	82.61
589.907	82.5
590.238	82.67
590.569	82.97
590.9	82.94
591.231	82.94
591.562	83.07
591.892	83.09
592.223	83.24
592.554	83.09
592.885	83.12
593.215	83.05
593.546	83.01
593.877	82.98
594.207	82.89
594.538	82.81
594.868	82.79
595.198	82.97
595.529	83.1
595.859	83.19
596.189	83.29
596.52	83.52
596.85	83.74
597.18	83.8
597.51	83.74
597.84	83.76
598.17	83.78
598.5	83.78
598.83	83.84
599.16	83.78
599.489	83.76
599.819	83.72
600.149	83.55
600.479	83.31
600.808	83.42
601.138	83.19
601.467	83.26
601.797	83.19
602.126	83.2
602.456	83.18
602.785	83.18
603.114	83.01
603.443	82.99
603.773	82.93
604.102	82.78
604.431	82.56
604.76	82.32
605.089	82.19
605.418	81.96
605.747	81.94
606.076	81.61
606.405	81.62
606.733	81.52
607.062	81.27
607.391	81.19
607.72	81.02
608.048	80.74
608.377	80.69
608.705	80.93
609.034	80.84
609.362	81.19
609.69	81.12
610.019	81.28
610.347	81.3
610.675	81.27
611.004	81.17
611.332	81.4
611.66	81.31
611.988	81.13
612.316	81.19
612.644	81.43
612.972	81.66
613.3	81.6
613.627	81.71
613.955	81.81
614.283	81.77
614.611	81.99
614.938	82.13
615.266	82.15
615.593	82.27
615.921	82.23
616.248	82.42
616.576	82.54
616.903	82.43
617.23	82.04
617.558	81.92
617.885	81.86
618.212	81.7
618.539	81.25
618.866	81.54
619.193	81.72
619.52	81.4
619.847	81.16
620.174	81.17
620.501	81.14
620.828	80.94
621.155	80.8
621.481	80.69
621.808	80.9
622.135	80.97
622.461	81.67
622.788	81.49
623.114	81.05
623.441	80.78
623.767	80.62
624.093	80.96
624.42	80.95
624.746	81.36
625.072	81.62
625.398	82.16
625.725	82.32
626.051	82.3
626.377	82.94
626.703	83.53
627.029	83.05
627.354	82.57
627.68	82.79
628.006	82.88
628.332	82.71
628.658	83.02
628.983	83.02
629.309	83.58
629.634	83.93
629.96	83.85
630.285	83.6
630.611	83.41
630.936	83.14
631.262	83.59
631.587	84.34
631.912	84.66
632.237	84.79
632.562	84.85
632.887	84.39
633.213	84.18
633.538	84.41
633.863	84.6
634.187	84.98
634.512	84.25
634.837	83.91
635.162	84.29
635.487	84.24
635.811	84.06
636.136	84.43
636.461	84.76
636.785	84.52
637.11	84.71
637.434	84.09
637.758	84.24
638.083	84.71
638.407	85.82
638.731	86.22
639.056	86.36
639.38	86.14
639.704	86.3
640.028	86.2
640.352	86.02
640.676	85.85
641	85.97
641.324	86.07
641.648	85.72
641.972	85.13
642.295	84.99
642.619	85.51
642.943	85.76
643.266	85.08
643.59	85.2
643.913	85.8
644.237	85.32
644.56	84.88
644.884	85
645.207	85.45
645.53	85.97
645.854	86.33
646.177	85.81
646.5	85.42
646.823	84.56
647.146	84.86
647.469	85.08
647.792	84.86
648.115	85.12
648.438	85.9
648.761	87.99
649.084	87.87
649.406	86.87
649.729	84.63
650.052	84.25
650.374	84.08
650.697	84.01
651.019	84
651.342	84.1
651.664	84.27
651.987	83.96
652.309	84.14
652.631	84.45
652.953	84.26
653.276	84
653.598	83.82
653.92	83.72
654.242	83.7
654.564	83.57
654.886	83.65
655.208	83.77
655.53	83.7
655.851	83.66
656.173	83.6
656.495	83.38
656.816	82.31
657.138	81.65
657.46	81.54
657.781	83.97
658.103	85.18
658.424	86.26
658.746	86.11
659.067	86.28
659.388	86.25
659.709	86.3
660.031	86.46
660.352	86.72
660.673	86.48
660.994	86.45
661.315	86.6
661.636	86.11
661.957	85.48
662.278	84.95
662.599	84.89
662.919	85.17
663.24	84.52
663.561	84.83
663.881	84.71
