Data from T1_Reflection__101__18-09-30-587.txt Node

Date: Wed Jun 02 18:09:30 CEST 2021
User: mabdelazizm
Spectrometer: FLMS18565
Trigger mode: 0
Integration Time (sec): 2.000000E0
Scans to average: 1
Electric dark correction enabled: true
Nonlinearity correction enabled: false
Boxcar width: 12
XAxis mode: Wavelengths
Number of Pixels in Spectrum: 2048
>>>>>Begin Spectral Data<<<<<
179.071	-90.27
179.452	-350.41
179.833	-2448.48
180.214	-95.24
180.595	1430.3
180.977	-45.63
181.358	-355.12
181.739	-85.33
182.12	4.59
182.501	85.05
182.882	58.76
183.262	57.67
183.643	386.31
184.024	35.89
184.405	28.12
184.786	42.95
185.166	40.19
185.547	34.65
185.927	20.11
186.308	22.32
186.689	26.22
187.069	27.9
187.449	28.69
187.83	25.86
188.21	22.01
188.59	22.65
188.971	22.36
189.351	20.56
189.731	22.59
190.111	23.52
190.491	21.98
190.871	18.67
191.251	18.53
191.631	18.49
192.011	18.75
192.391	19.7
192.771	20.03
193.151	21.94
193.531	17.39
193.91	15.69
194.29	12.45
194.67	11.63
195.049	12.21
195.429	13.39
195.808	11.54
196.188	10.89
196.567	9.37
196.946	7.36
197.326	8.58
197.705	7.62
198.084	8.43
198.464	8.04
198.843	9.07
199.222	9.65
199.601	8.76
199.98	9.18
200.359	9.49
200.738	10.93
201.117	11.15
201.496	12.26
201.875	11.69
202.254	11.16
202.632	10.66
203.011	10.91
203.39	10.31
203.768	9.86
204.147	9.53
204.525	9.85
204.904	9.61
205.282	9.88
205.661	9.56
206.039	10.92
206.418	11.03
206.796	10.9
207.174	11.46
207.552	11.32
207.931	10.28
208.309	9.69
208.687	9.03
209.065	9.35
209.443	8.63
209.821	8.67
210.199	7.34
210.577	6.71
210.954	5.52
211.332	4.78
211.71	4.37
212.088	4.24
212.465	3.9
212.843	4.78
213.221	5.34
213.598	5.34
213.976	4.41
214.353	3.99
214.731	3.56
215.108	3.26
215.485	2.63
215.863	2.42
216.24	2.03
216.617	2.92
216.994	2.41
217.371	3.41
217.749	3.54
218.126	3.44
218.503	3.3
218.88	3.6
219.256	3.28
219.633	3.71
220.01	4.38
220.387	4.61
220.764	4.91
221.14	4.97
221.517	4.94
221.894	5.4
222.27	5.58
222.647	5.44
223.023	5.37
223.4	5.6
223.776	5.93
224.153	5.99
224.529	5.84
224.905	5.89
225.282	5.7
225.658	5.66
226.034	5.05
226.41	5.2
226.786	4.9
227.162	4.71
227.538	4.8
227.914	4.8
228.29	4.82
228.666	4.77
229.042	4.76
229.418	4.46
229.793	4.59
230.169	4.37
230.545	4.03
230.92	3.87
231.296	3.63
231.672	3.44
232.047	3.29
232.422	3.25
232.798	3.15
233.173	3.03
233.549	3
233.924	2.9
234.299	2.85
234.674	2.88
235.05	2.71
235.425	2.72
235.8	2.61
236.175	2.58
236.55	2.58
236.925	2.44
237.3	2.44
237.675	2.46
238.049	2.6
238.424	2.62
238.799	2.7
239.174	2.62
239.548	2.81
239.923	2.81
240.297	2.85
240.672	2.88
241.046	2.79
241.421	2.73
241.795	2.53
242.17	2.44
242.544	2.46
242.918	2.31
243.293	2.22
243.667	2.16
244.041	2.22
244.415	2.15
244.789	2.2
245.163	2.16
245.537	2.23
245.911	2.16
246.285	2.25
246.659	2.21
247.033	2.23
247.406	2.1
247.78	2.09
248.154	2.07
248.528	2.04
248.901	1.97
249.275	2.05
249.648	2.11
250.022	2.05
250.395	2.16
250.769	2.24
251.142	2.43
251.515	2.5
251.888	2.51
252.262	2.67
252.635	2.76
253.008	2.76
253.381	2.75
253.754	2.87
254.127	2.84
254.5	2.9
254.873	2.83
255.246	2.94
255.619	2.85
255.992	2.83
256.364	2.77
256.737	2.8
257.11	2.75
257.483	2.74
257.855	2.75
258.228	2.74
258.6	2.8
258.973	2.82
259.345	2.88
259.718	2.83
260.09	2.84
260.462	2.78
260.834	2.78
261.207	2.69
261.579	2.63
261.951	2.56
262.323	2.61
262.695	2.55
263.067	2.46
263.439	2.46
263.811	2.44
264.183	2.45
264.555	2.43
264.927	2.45
265.298	2.43
265.67	2.33
266.042	2.33
266.413	2.28
266.785	2.21
267.156	2.16
267.528	2.15
267.899	2.06
268.271	1.96
268.642	1.93
269.013	1.97
269.385	1.92
269.756	1.89
270.127	1.82
270.498	1.89
270.87	1.96
271.241	2.09
271.612	2.06
271.983	2.07
272.354	2.05
272.724	2.06
273.095	2.08
273.466	2.09
273.837	2.09
274.208	2.09
274.578	2.1
274.949	2.16
275.32	2.1
275.69	2.16
276.061	2.25
276.431	2.27
276.802	2.25
277.172	2.3
277.542	2.27
277.913	2.3
278.283	2.25
278.653	2.21
279.023	2.26
279.394	2.27
279.764	2.18
280.134	2.15
280.504	2.08
280.874	2
281.244	1.91
281.614	1.88
281.983	1.8
282.353	1.83
282.723	1.77
283.093	1.76
283.462	1.71
283.832	1.65
284.202	1.67
284.571	1.73
284.941	1.73
285.31	1.62
285.68	1.59
286.049	1.56
286.418	1.5
286.788	1.62
287.157	1.55
287.526	1.49
287.895	1.45
288.264	1.41
288.633	1.44
289.002	1.44
289.371	1.4
289.74	1.34
290.109	1.39
290.478	1.46
290.847	1.54
291.216	1.59
291.585	1.48
291.953	1.51
292.322	1.41
292.691	1.39
293.059	1.42
293.428	1.41
293.796	1.38
294.165	1.32
294.533	1.35
294.901	1.39
295.27	1.4
295.638	1.42
296.006	1.3
296.374	1.32
296.743	1.31
297.111	1.36
297.479	1.37
297.847	1.38
298.215	1.38
298.583	1.36
298.95	1.32
299.318	1.32
299.686	1.28
300.054	1.28
300.422	1.24
300.789	1.24
301.157	1.19
301.525	1.24
301.892	1.23
302.26	1.2
302.627	1.16
302.994	1.1
303.362	1.14
303.729	1.13
304.097	1.17
304.464	1.19
304.831	1.21
305.198	1.2
305.565	1.17
305.932	1.25
306.299	1.24
306.666	1.21
307.033	1.15
307.4	1.24
307.767	1.18
308.134	1.2
308.501	1.2
308.867	1.24
309.234	1.18
309.601	1.18
309.967	1.21
310.334	1.23
310.701	1.24
311.067	1.3
311.433	1.32
311.8	1.32
312.166	1.33
312.533	1.31
312.899	1.26
313.265	1.23
313.631	1.25
313.997	1.22
314.363	1.18
314.729	1.21
315.096	1.15
315.461	1.14
315.827	1.14
316.193	1.23
316.559	1.18
316.925	1.2
317.291	1.22
317.656	1.23
318.022	1.24
318.388	1.32
318.753	1.3
319.119	1.3
319.484	1.41
319.85	1.41
320.215	1.41
320.581	1.41
320.946	1.39
321.311	1.45
321.676	1.49
322.042	1.56
322.407	1.48
322.772	1.54
323.137	1.63
323.502	1.67
323.867	1.51
324.232	1.51
324.597	1.56
324.962	1.6
325.327	1.54
325.691	1.53
326.056	1.55
326.421	1.6
326.785	1.58
327.15	1.65
327.514	1.62
327.879	1.72
328.243	1.71
328.608	1.62
328.972	1.63
329.337	1.59
329.701	1.56
330.065	1.64
330.429	1.58
330.794	1.54
331.158	1.52
331.522	1.54
331.886	1.46
332.25	1.36
332.614	1.29
332.978	1.41
333.342	1.42
333.705	1.48
334.069	1.49
334.433	1.47
334.797	1.48
335.16	1.51
335.524	1.48
335.887	1.53
336.251	1.42
336.614	1.36
336.978	1.27
337.341	1.3
337.705	1.33
338.068	1.44
338.431	1.47
338.794	1.48
339.158	1.42
339.521	1.43
339.884	1.43
340.247	1.42
340.61	1.44
340.973	1.43
341.336	1.44
341.699	1.47
342.062	1.54
342.424	1.5
342.787	1.43
343.15	1.45
343.512	1.37
343.875	1.36
344.238	1.37
344.6	1.38
344.963	1.33
345.325	1.36
345.688	1.34
346.05	1.36
346.412	1.36
346.775	1.3
347.137	1.16
347.499	1.27
347.861	1.25
348.223	1.28
348.585	1.26
348.947	1.2
349.309	1.18
349.671	1.23
350.033	1.3
350.395	1.28
350.757	1.33
351.118	1.25
351.48	1.28
351.842	1.13
352.203	1.1
352.565	1.22
352.927	1.19
353.288	1.21
353.65	1.16
354.011	1.16
354.372	1.17
354.734	1.25
355.095	1.32
355.456	1.37
355.817	1.4
356.179	1.44
356.54	1.32
356.901	1.41
357.262	1.45
357.623	1.5
357.984	1.64
358.345	1.66
358.705	1.65
359.066	1.52
359.427	1.53
359.788	1.43
360.148	1.49
360.509	1.53
360.87	1.74
361.23	1.74
361.591	1.79
361.951	1.8
362.312	1.74
362.672	1.81
363.032	1.78
363.393	1.81
363.753	1.8
364.113	1.78
364.473	1.77
364.833	1.72
365.193	1.68
365.553	1.65
365.913	1.62
366.273	1.68
366.633	1.67
366.993	1.52
367.353	1.55
367.713	1.52
368.072	1.47
368.432	1.5
368.792	1.56
369.151	1.56
369.511	1.47
369.87	1.48
370.23	1.46
370.589	1.36
370.949	1.35
371.308	1.37
371.667	1.36
372.027	1.33
372.386	1.27
372.745	1.31
373.104	1.25
373.463	1.22
373.822	1.26
374.181	1.28
374.54	1.32
374.899	1.25
375.258	1.15
375.617	1.17
375.975	1.17
376.334	1.07
376.693	0.98
377.052	1.04
377.41	1.06
377.769	0.97
378.127	0.93
378.486	1
378.844	0.93
379.202	0.89
379.561	0.86
379.919	0.89
380.277	0.83
380.636	0.84
380.994	0.88
381.352	0.92
381.71	0.91
382.068	1
382.426	0.91
382.784	0.92
383.142	0.9
383.5	0.9
383.857	1.03
384.215	1.02
384.573	1.03
384.931	1.12
385.288	1.1
385.646	1.11
386.003	1.16
386.361	1.24
386.718	1.38
387.076	1.4
387.433	1.35
387.791	1.35
388.148	1.35
388.505	1.29
388.862	1.24
389.22	1.37
389.577	1.36
389.934	1.41
390.291	1.48
390.648	1.38
391.005	1.33
391.362	1.4
391.718	1.45
392.075	1.36
392.432	1.35
392.789	1.25
393.145	1.29
393.502	1.21
393.859	1.29
394.215	1.3
394.572	1.34
394.928	1.24
395.285	1.11
395.641	1.01
395.997	0.97
396.354	1.09
396.71	1.19
397.066	1.26
397.422	1.44
397.778	1.59
398.134	1.48
398.491	1.48
398.846	1.47
399.202	1.46
399.558	1.54
399.914	1.59
400.27	1.59
400.626	1.48
400.981	1.57
401.337	1.66
401.693	1.77
402.048	1.74
402.404	1.81
402.759	1.77
403.115	1.94
403.47	2.04
403.826	2.17
404.181	2.17
404.536	2.3
404.892	2.39
405.247	2.35
405.602	2.3
405.957	2.27
406.312	2.3
406.667	2.18
407.022	2.34
407.377	2.41
407.732	2.45
408.087	2.39
408.442	2.38
408.796	2.28
409.151	2.29
409.506	2.38
409.86	2.43
410.215	2.31
410.57	2.28
410.924	2.28
411.279	2.16
411.633	2.21
411.987	2.1
412.342	2.05
412.696	2.02
413.05	2.22
413.404	2.14
413.758	2.31
414.113	2.3
414.467	2.29
414.821	2.27
415.175	2.21
415.529	2.24
415.882	2.06
416.236	2
416.59	1.95
416.944	2
417.298	2.06
417.651	2.11
418.005	2.13
418.358	2.23
418.712	2.33
419.065	2.36
419.419	2.32
419.772	2.36
420.126	2.5
420.479	2.56
420.832	2.72
421.185	2.84
421.539	2.76
421.892	2.67
422.245	2.75
422.598	2.53
422.951	2.6
423.304	2.67
423.657	2.82
424.01	2.78
424.363	2.98
424.715	3.09
425.068	3.17
425.421	3.23
425.773	3.2
426.126	3.37
426.479	3.47
426.831	3.6
427.184	3.57
427.536	3.52
427.889	3.59
428.241	3.65
428.593	3.73
428.945	3.82
429.298	3.75
429.65	3.63
430.002	3.63
430.354	3.76
430.706	3.81
431.058	3.9
431.41	4.02
431.762	4.09
432.114	4.03
432.466	3.94
432.817	3.91
433.169	3.83
433.521	3.91
433.872	4.01
434.224	3.94
434.576	4.04
434.927	3.77
435.279	3.72
435.63	3.59
435.981	3.62
436.333	3.57
436.684	3.51
437.035	3.47
437.387	3.38
437.738	3.34
438.089	3.35
438.44	3.36
438.791	3.32
439.142	3.45
439.493	3.32
439.844	3.21
440.195	3.14
440.545	3.1
440.896	3.15
441.247	3.17
441.598	3.29
441.948	3.21
442.299	3.17
442.649	3.06
443	3.09
443.35	3
443.701	3.11
444.051	3.13
444.401	3.19
444.752	3.15
445.102	3.18
445.452	3.22
445.802	3.16
446.152	3.22
446.502	3.29
446.852	3.27
447.202	3.26
447.552	3.33
447.902	3.24
448.252	3.34
448.602	3.58
448.952	3.7
449.301	3.67
449.651	3.51
450.001	3.49
450.35	3.59
450.7	3.52
451.049	3.39
451.399	3.46
451.748	3.49
452.097	3.6
452.447	3.63
452.796	3.55
453.145	3.54
453.494	3.54
453.843	3.58
454.193	3.68
454.542	3.83
454.891	3.86
455.239	3.83
455.588	3.83
455.937	3.85
456.286	3.93
456.635	3.97
456.984	4.01
457.332	3.81
457.681	3.69
458.03	3.72
458.378	3.91
458.727	4.11
459.075	4.05
459.423	4.28
459.772	4.48
460.12	4.49
460.468	4.5
460.817	4.56
461.165	4.61
461.513	4.69
461.861	4.92
462.209	4.95
462.557	5
462.905	4.88
463.253	4.97
463.601	5.08
463.949	5.06
464.297	5.16
464.644	5.24
464.992	5.25
465.34	5.23
465.687	5.15
466.035	5.12
466.383	5.14
466.73	5.13
467.078	5.09
467.425	4.9
467.772	4.81
468.12	4.64
468.467	4.52
468.814	4.55
469.161	4.64
469.508	4.48
469.856	4.35
470.203	4.27
470.55	3.95
470.897	4
471.243	3.89
471.59	3.91
471.937	3.88
472.284	3.87
472.631	3.76
472.977	3.78
473.324	3.72
473.671	3.65
474.017	3.61
474.364	3.74
474.71	3.72
475.057	3.72
475.403	3.76
475.749	3.72
476.096	3.7
476.442	3.81
476.788	3.89
477.134	3.89
477.48	3.86
477.826	3.74
478.172	3.84
478.518	3.86
478.864	3.96
479.21	4.09
479.556	4.02
479.902	4.05
480.248	4.09
480.593	4.03
480.939	3.93
481.285	4.04
481.63	4.01
481.976	4.05
482.321	4.1
482.667	4.21
483.012	4.22
483.357	4.28
483.703	4.37
484.048	4.52
484.393	4.76
484.738	4.92
485.084	5.03
485.429	5.23
485.774	5.49
486.119	5.62
486.464	5.92
486.808	6.11
487.153	6.38
487.498	6.6
487.843	6.85
488.188	7.2
488.532	7.5
488.877	7.95
489.222	8.42
489.566	8.91
489.911	9.35
490.255	9.9
490.6	10.45
490.944	10.92
491.288	11.42
491.633	11.96
491.977	12.64
492.321	13.35
492.665	13.92
493.009	14.41
493.353	15.07
493.697	15.73
494.041	16.38
494.385	17.13
494.729	17.92
495.073	18.66
495.417	19.48
495.76	20.23
496.104	21.06
496.448	21.86
496.791	22.73
497.135	23.61
497.479	24.33
497.822	25.17
498.165	26.09
498.509	27.04
498.852	27.95
499.196	28.88
499.539	29.87
499.882	30.82
500.225	31.83
500.568	32.68
500.911	33.41
501.254	34.22
501.597	35.16
501.94	36.09
502.283	36.93
502.626	37.75
502.969	38.54
503.312	39.34
503.654	40.2
503.997	41.06
504.34	41.86
504.682	42.76
505.025	43.6
505.367	44.32
505.71	45.1
506.052	46.03
506.395	46.84
506.737	47.67
507.079	48.49
507.421	49.1
507.764	49.85
508.106	50.6
508.448	51.25
508.79	51.85
509.132	52.46
509.474	53.15
509.816	53.79
510.158	54.36
510.499	54.92
510.841	55.57
511.183	56.07
511.525	56.71
511.866	57.28
512.208	57.8
512.549	58.35
512.891	58.97
513.232	59.44
513.574	59.96
513.915	60.43
514.256	61.02
514.598	61.41
514.939	61.91
515.28	62.26
515.621	62.56
515.962	62.98
516.303	63.43
516.644	63.72
516.985	64.09
517.326	64.44
517.667	64.83
518.008	65.1
518.349	65.55
518.69	65.99
519.03	66.05
519.371	66.36
519.712	66.78
520.052	66.92
520.393	67.2
520.733	67.4
521.074	67.53
521.414	67.93
521.754	68.1
522.095	68.34
522.435	68.76
522.775	68.83
523.115	69.12
523.455	69.2
523.795	69.39
524.135	69.48
524.475	69.79
524.815	69.87
525.155	70.01
525.495	70.08
525.835	70.06
526.175	70.22
526.514	70.59
526.854	70.69
527.194	70.77
527.533	71.19
527.873	71.32
528.212	71.42
528.552	71.65
528.891	71.67
529.23	71.97
529.57	71.98
529.909	71.9
530.248	72.01
530.587	72.16
530.927	72.13
531.266	72.39
531.605	72.49
531.944	72.51
532.283	72.62
532.621	72.83
532.96	73.09
533.299	73.37
533.638	73.7
533.977	74.14
534.315	74.35
534.654	74.38
534.992	74.46
535.331	74.38
535.67	74.51
536.008	74.86
536.346	74.81
536.685	74.8
537.023	74.72
537.361	75
537.7	74.98
538.038	75.23
538.376	75.38
538.714	75.7
539.052	75.74
539.39	75.73
539.728	75.75
540.066	76.03
540.404	76.33
540.741	76.27
541.079	76.33
541.417	76.42
541.755	76.4
542.092	76.32
542.43	76.24
542.767	76.39
543.105	76.41
543.442	76.32
543.78	76.63
544.117	76.77
544.454	76.38
544.792	76.53
545.129	76.59
545.466	76.93
545.803	76.99
546.14	76.98
546.477	77
546.814	76.93
547.151	76.77
547.488	76.96
547.825	77.25
548.162	77.27
548.499	77.05
548.835	76.91
549.172	76.9
549.509	76.9
549.845	76.8
550.182	76.67
550.518	76.61
550.855	76.57
551.191	76.46
551.528	76.5
551.864	76.61
552.2	76.44
552.537	76.41
552.873	76.58
553.209	76.7
553.545	76.9
553.881	76.65
554.217	76.62
554.553	76.83
554.889	76.88
555.225	76.82
555.561	76.87
555.896	76.81
556.232	76.74
556.568	76.79
556.903	76.89
557.239	76.91
557.575	77.04
557.91	77.08
558.245	77.33
558.581	77.71
558.916	77.83
559.252	77.83
559.587	77.75
559.922	77.99
560.257	78.13
560.592	78.34
560.928	78.34
561.263	78.35
561.598	78.53
561.933	78.54
562.267	78.69
562.602	78.68
562.937	78.78
563.272	79.03
563.607	79.52
563.941	79.58
564.276	79.7
564.611	79.97
564.945	79.99
565.28	79.96
565.614	80.03
565.949	80.03
566.283	80.37
566.617	80.28
566.951	80.18
567.286	80.48
567.62	80.63
567.954	81.17
568.288	81.21
568.622	81.05
568.956	80.98
569.29	81.01
569.624	81.25
569.958	81.17
570.292	81.21
570.626	81.29
570.959	81.49
571.293	81.51
571.627	81.58
571.96	81.52
572.294	81.29
572.627	81.1
572.961	80.88
573.294	80.95
573.627	81.05
573.961	81.15
574.294	81.31
574.627	81.16
574.961	81.26
575.294	81.33
575.627	81.12
575.96	81.02
576.293	80.77
576.626	80.66
576.959	80.67
577.292	80.7
577.624	80.64
577.957	80.59
578.29	80.81
578.623	80.75
578.955	80.8
579.288	80.69
579.62	80.67
579.953	80.6
580.285	80.56
580.618	80.85
580.95	81.03
581.282	81.08
581.615	81.18
581.947	81.18
582.279	81.06
582.611	81.18
582.943	81.22
583.275	81.05
583.607	81.03
583.939	81.12
584.271	81.26
584.603	81.38
584.935	81.44
585.267	81.56
585.598	81.66
585.93	82.03
586.262	82.19
586.593	82.03
586.925	81.97
587.256	81.87
587.588	81.81
587.919	81.78
588.25	81.66
588.582	81.59
588.913	81.73
589.244	81.68
589.575	81.86
589.907	81.76
590.238	81.88
590.569	82.11
590.9	82.04
591.231	82.13
591.562	82.24
591.892	82.19
592.223	82.29
592.554	82.35
592.885	82.25
593.215	82.08
593.546	81.99
593.877	81.75
594.207	81.42
594.538	81.25
594.868	81.16
595.198	81.48
595.529	81.58
595.859	81.61
596.189	81.81
596.52	82.08
596.85	82.33
597.18	82.3
597.51	82.27
597.84	82.29
598.17	82.27
598.5	82.34
598.83	82.32
599.16	82.18
599.489	82
599.819	82.03
600.149	81.99
600.479	81.72
600.808	81.47
601.138	81.44
601.467	81.4
601.797	81.57
602.126	81.66
602.456	81.74
602.785	81.83
603.114	81.78
603.443	81.5
603.773	81.61
604.102	81.61
604.431	81.27
604.76	81.02
605.089	80.83
605.418	80.71
605.747	80.64
606.076	80.54
606.405	80.45
606.733	80.21
607.062	80.12
607.391	79.99
607.72	80.01
608.048	79.85
608.377	79.93
608.705	80.08
609.034	80.03
609.362	80.21
609.69	80.52
610.019	80.45
610.347	80.5
610.675	80.55
611.004	80.49
611.332	80.69
611.66	81
611.988	80.71
612.316	80.65
612.644	80.97
612.972	81.1
613.3	80.76
613.627	80.72
613.955	80.75
614.283	80.52
614.611	80.78
614.938	80.95
615.266	80.99
615.593	80.98
615.921	80.9
616.248	80.87
616.576	80.76
616.903	80.93
617.23	81.03
617.558	81.18
617.885	81.02
618.212	81.15
618.539	80.86
618.866	80.9
619.193	80.87
619.52	80.59
619.847	80.07
620.174	80.26
620.501	80.48
620.828	80.2
621.155	80.04
621.481	80.2
621.808	80.39
622.135	80.7
622.461	81.54
622.788	81.46
623.114	81.23
623.441	81.08
623.767	81.16
624.093	81.28
624.42	81.47
624.746	82.01
625.072	81.85
625.398	82.38
625.725	82.05
626.051	81.97
626.377	81.76
626.703	82.14
627.029	81.87
627.354	81.9
627.68	82.56
628.006	83.21
628.332	82.58
628.658	82.64
628.983	82.98
629.309	83.12
629.634	83.15
629.96	82.8
630.285	82.95
630.611	82.15
630.936	82.05
631.262	82.4
631.587	82.83
631.912	83.36
632.237	83.66
632.562	84.31
632.887	83.66
633.213	83.32
633.538	83.23
633.863	82.99
634.187	83.7
634.512	83.94
634.837	83.9
635.162	83.99
635.487	83.41
635.811	82.47
636.136	82.36
636.461	83.2
636.785	82.98
637.11	83.08
637.434	83.19
637.758	83.84
638.083	83.69
638.407	83.84
638.731	84.54
639.056	84.03
639.38	84.1
639.704	84.22
640.028	84.17
640.352	83.99
640.676	83.38
641	83.9
641.324	84.8
641.648	84.21
641.972	84.84
642.295	84.73
642.619	84.79
642.943	85.03
643.266	84.55
643.59	84.63
643.913	85.54
644.237	84.94
644.56	84.65
644.884	84.55
645.207	84.17
645.53	84.82
645.854	84.87
646.177	85.06
646.5	85.09
646.823	84.53
647.146	85.47
647.469	85.64
647.792	84.88
648.115	85.08
648.438	85.37
648.761	86.94
649.084	86.3
649.406	85.66
649.729	83.88
650.052	83.12
650.374	82.98
650.697	82.89
651.019	82.83
651.342	83.2
651.664	83.34
651.987	83.11
652.309	83.29
652.631	83.47
652.953	83.29
653.276	83.05
653.598	82.74
653.92	82.69
654.242	82.71
654.564	82.43
654.886	82.47
655.208	82.34
655.53	82.31
655.851	82.59
656.173	82.46
656.495	82.49
656.816	81.61
657.138	80.89
657.46	80.02
657.781	81.52
658.103	82.38
658.424	82.59
658.746	83.35
659.067	83.35
659.388	82.55
659.709	82.5
660.031	83
660.352	82.61
660.673	81.72
660.994	81.81
661.315	83.78
661.636	83.56
661.957	82.51
662.278	82.51
662.599	83.18
662.919	82.94
663.24	82.97
663.561	82.68
663.881	82.7
664.202	82.69
664.523	82.36
