Data from T1_Reflection__6__20-13-14-466.txt Node

Date: Wed Jun 02 20:13:14 CEST 2021
User: mabdelazizm
Spectrometer: FLMS18565
Trigger mode: 0
Integration Time (sec): 2.000000E0
Scans to average: 1
Electric dark correction enabled: true
Nonlinearity correction enabled: false
Boxcar width: 12
XAxis mode: Wavelengths
Number of Pixels in Spectrum: 2048
>>>>>Begin Spectral Data<<<<<
179.071	-18.49
179.452	-28
179.833	-24.25
180.214	-58.18
180.595	-59.01
180.977	-77.62
181.358	-65.08
181.739	-61.67
182.12	-52.11
182.501	-73.63
182.882	-90.95
183.262	10
183.643	5.69
184.024	28.55
184.405	25.94
184.786	20.15
185.166	21.85
185.547	16.72
185.927	18.88
186.308	27.58
186.689	17.93
187.069	17.95
187.449	23.53
187.83	23.61
188.21	23.7
188.59	22.55
188.971	20.38
189.351	18.63
189.731	16.49
190.111	17.2
190.491	17.9
190.871	17.7
191.251	18.91
191.631	18.41
192.011	17.2
192.391	16.12
192.771	18.82
193.151	19.8
193.531	18.53
193.91	16.09
194.29	16.24
194.67	16.56
195.049	16.88
195.429	16.68
195.808	15.46
196.188	15.96
196.567	14.46
196.946	14.39
197.326	13.25
197.705	13.31
198.084	13.09
198.464	13.24
198.843	13
199.222	13.45
199.601	13.16
199.98	12.39
200.359	12.75
200.738	13.42
201.117	13.6
201.496	13.88
201.875	13.55
202.254	13.11
202.632	12.18
203.011	11.85
203.39	12.94
203.768	11.28
204.147	10.86
204.525	9.99
204.904	9.75
205.282	10.71
205.661	9.22
206.039	9.11
206.418	8.66
206.796	8.81
207.174	7.42
207.552	7.02
207.931	6.2
208.309	6.45
208.687	6.41
209.065	6.26
209.443	7.05
209.821	6.19
210.199	5.1
210.577	4.67
210.954	4.02
211.332	4.03
211.71	3.96
212.088	4.82
212.465	4.52
212.843	4.97
213.221	6.07
213.598	6.22
213.976	6.74
214.353	6.54
214.731	5.57
215.108	6.36
215.485	6.45
215.863	5.74
216.24	5.44
216.617	5.68
216.994	5.86
217.371	5.82
217.749	5.72
218.126	5.5
218.503	5.02
218.88	5.18
219.256	5.2
219.633	5.44
220.01	5.41
220.387	5.39
220.764	5.57
221.14	5.39
221.517	5.27
221.894	5.26
222.27	4.58
222.647	4.42
223.023	3.82
223.4	3.86
223.776	4.06
224.153	4.16
224.529	4.02
224.905	4.34
225.282	4.62
225.658	4.56
226.034	4.17
226.41	4.35
226.786	4.55
227.162	4.53
227.538	4.38
227.914	4.45
228.29	4.06
228.666	3.86
229.042	3.71
229.418	3.76
229.793	3.85
230.169	3.77
230.545	3.57
230.92	3.5
231.296	3.44
231.672	3.42
232.047	3.31
232.422	3.54
232.798	3.34
233.173	3.2
233.549	3.03
233.924	2.89
234.299	2.84
234.674	2.74
235.05	2.83
235.425	2.92
235.8	2.96
236.175	2.92
236.55	2.81
236.925	2.75
237.3	2.67
237.675	2.64
238.049	2.72
238.424	2.65
238.799	2.55
239.174	2.54
239.548	2.54
239.923	2.57
240.297	2.48
240.672	2.42
241.046	2.5
241.421	2.55
241.795	2.47
242.17	2.44
242.544	2.46
242.918	2.51
243.293	2.57
243.667	2.51
244.041	2.49
244.415	2.41
244.789	2.35
245.163	2.21
245.537	2.18
245.911	2.22
246.285	2.3
246.659	2.34
247.033	2.41
247.406	2.37
247.78	2.39
248.154	2.46
248.528	2.41
248.901	2.41
249.275	2.38
249.648	2.37
250.022	2.41
250.395	2.38
250.769	2.35
251.142	2.37
251.515	2.4
251.888	2.44
252.262	2.45
252.635	2.44
253.008	2.44
253.381	2.43
253.754	2.46
254.127	2.5
254.5	2.47
254.873	2.46
255.246	2.42
255.619	2.32
255.992	2.28
256.364	2.24
256.737	2.28
257.11	2.3
257.483	2.25
257.855	2.3
258.228	2.29
258.6	2.32
258.973	2.32
259.345	2.28
259.718	2.24
260.09	2.24
260.462	2.2
260.834	2.2
261.207	2.12
261.579	2.09
261.951	2.12
262.323	2.14
262.695	2.15
263.067	2.14
263.439	2.09
263.811	2.1
264.183	2.11
264.555	2.18
264.927	2.18
265.298	2.22
265.67	2.18
266.042	2.13
266.413	2.08
266.785	2.15
267.156	2.09
267.528	2.02
267.899	1.99
268.271	1.96
268.642	2.01
269.013	2.01
269.385	2.02
269.756	1.99
270.127	1.96
270.498	1.99
270.87	2
271.241	1.96
271.612	1.9
271.983	1.88
272.354	1.89
272.724	1.88
273.095	1.88
273.466	1.88
273.837	1.84
274.208	1.89
274.578	1.86
274.949	1.92
275.32	1.89
275.69	1.89
276.061	1.81
276.431	1.82
276.802	1.87
277.172	1.83
277.542	1.85
277.913	1.82
278.283	1.8
278.653	1.8
279.023	1.83
279.394	1.85
279.764	1.87
280.134	1.83
280.504	1.83
280.874	1.89
281.244	1.88
281.614	1.81
281.983	1.84
282.353	1.84
282.723	1.87
283.093	1.87
283.462	1.79
283.832	1.79
284.202	1.75
284.571	1.74
284.941	1.76
285.31	1.73
285.68	1.73
286.049	1.75
286.418	1.76
286.788	1.76
287.157	1.77
287.526	1.78
287.895	1.76
288.264	1.77
288.633	1.77
289.002	1.72
289.371	1.73
289.74	1.7
290.109	1.61
290.478	1.57
290.847	1.59
291.216	1.57
291.585	1.55
291.953	1.51
292.322	1.46
292.691	1.45
293.059	1.43
293.428	1.4
293.796	1.38
294.165	1.35
294.533	1.36
294.901	1.4
295.27	1.36
295.638	1.39
296.006	1.37
296.374	1.36
296.743	1.33
297.111	1.33
297.479	1.26
297.847	1.2
298.215	1.22
298.583	1.21
298.95	1.25
299.318	1.27
299.686	1.33
300.054	1.33
300.422	1.26
300.789	1.25
301.157	1.21
301.525	1.28
301.892	1.31
302.26	1.28
302.627	1.31
302.994	1.32
303.362	1.35
303.729	1.38
304.097	1.27
304.464	1.26
304.831	1.21
305.198	1.24
305.565	1.17
305.932	1.22
306.299	1.25
306.666	1.29
307.033	1.35
307.4	1.38
307.767	1.36
308.134	1.34
308.501	1.34
308.867	1.3
309.234	1.27
309.601	1.32
309.967	1.37
310.334	1.4
310.701	1.38
311.067	1.35
311.433	1.4
311.8	1.33
312.166	1.35
312.533	1.38
312.899	1.4
313.265	1.44
313.631	1.45
313.997	1.46
314.363	1.47
314.729	1.46
315.096	1.43
315.461	1.38
315.827	1.38
316.193	1.43
316.559	1.39
316.925	1.39
317.291	1.36
317.656	1.35
318.022	1.38
318.388	1.41
318.753	1.41
319.119	1.42
319.484	1.38
319.85	1.35
320.215	1.34
320.581	1.33
320.946	1.34
321.311	1.31
321.676	1.28
322.042	1.25
322.407	1.24
322.772	1.18
323.137	1.18
323.502	1.19
323.867	1.19
324.232	1.19
324.597	1.22
324.962	1.23
325.327	1.15
325.691	1.16
326.056	1.17
326.421	1.19
326.785	1.21
327.15	1.16
327.514	1.16
327.879	1.21
328.243	1.09
328.608	1.12
328.972	1.07
329.337	1.08
329.701	1.06
330.065	1.09
330.429	1.06
330.794	1.1
331.158	1.1
331.522	1.12
331.886	1.16
332.25	1.16
332.614	1.07
332.978	1.08
333.342	1.04
333.705	1.03
334.069	1.01
334.433	0.99
334.797	0.95
335.16	0.99
335.524	0.98
335.887	1
336.251	1.03
336.614	0.94
336.978	0.89
337.341	0.94
337.705	0.96
338.068	1.07
338.431	1.07
338.794	1.05
339.158	1.07
339.521	1.07
339.884	0.96
340.247	0.88
340.61	0.85
340.973	0.92
341.336	0.93
341.699	0.93
342.062	0.94
342.424	0.94
342.787	0.92
343.15	0.96
343.512	0.94
343.875	0.97
344.238	0.95
344.6	0.91
344.963	0.85
345.325	0.82
345.688	0.89
346.05	0.92
346.412	0.92
346.775	0.83
347.137	0.84
347.499	0.9
347.861	0.92
348.223	0.93
348.585	0.91
348.947	0.95
349.309	0.97
349.671	0.98
350.033	0.89
350.395	0.89
350.757	0.92
351.118	0.93
351.48	1.01
351.842	1
352.203	0.97
352.565	0.98
352.927	0.97
353.288	0.99
353.65	1.03
354.011	1.04
354.372	1.07
354.734	1.04
355.095	0.94
355.456	0.94
355.817	0.99
356.179	0.92
356.54	0.88
356.901	0.87
357.262	0.79
357.623	0.82
357.984	0.85
358.345	0.86
358.705	0.84
359.066	0.82
359.427	0.92
359.788	0.93
360.148	0.88
360.509	0.82
360.87	0.8
361.23	0.72
361.591	0.73
361.951	0.66
362.312	0.58
362.672	0.56
363.032	0.52
363.393	0.49
363.753	0.53
364.113	0.57
364.473	0.69
364.833	0.68
365.193	0.75
365.553	0.68
365.913	0.76
366.273	0.82
366.633	0.83
366.993	0.77
367.353	0.74
367.713	0.73
368.072	0.77
368.432	0.68
368.792	0.68
369.151	0.71
369.511	0.72
369.87	0.72
370.23	0.77
370.589	0.75
370.949	0.8
371.308	0.91
371.667	0.85
372.027	0.91
372.386	0.92
372.745	0.9
373.104	0.9
373.463	0.73
373.822	0.72
374.181	0.61
374.54	0.63
374.899	0.54
375.258	0.52
375.617	0.53
375.975	0.66
376.334	0.67
376.693	0.69
377.052	0.62
377.41	0.6
377.769	0.58
378.127	0.55
378.486	0.52
378.844	0.49
379.202	0.55
379.561	0.52
379.919	0.54
380.277	0.52
380.636	0.61
380.994	0.62
381.352	0.65
381.71	0.6
382.068	0.6
382.426	0.65
382.784	0.65
383.142	0.7
383.5	0.67
383.857	0.69
384.215	0.67
384.573	0.63
384.931	0.55
385.288	0.55
385.646	0.54
386.003	0.55
386.361	0.58
386.718	0.57
387.076	0.55
387.433	0.57
387.791	0.63
388.148	0.56
388.505	0.68
388.862	0.66
389.22	0.69
389.577	0.62
389.934	0.56
390.291	0.54
390.648	0.54
391.005	0.6
391.362	0.59
391.718	0.66
392.075	0.64
392.432	0.69
392.789	0.69
393.145	0.71
393.502	0.71
393.859	0.67
394.215	0.66
394.572	0.69
394.928	0.77
395.285	0.73
395.641	0.7
395.997	0.74
396.354	0.78
396.71	0.78
397.066	0.76
397.422	0.68
397.778	0.69
398.134	0.66
398.491	0.78
398.846	0.76
399.202	0.78
399.558	0.82
399.914	0.79
400.27	0.83
400.626	0.77
400.981	0.81
401.337	0.79
401.693	0.85
402.048	0.83
402.404	0.95
402.759	0.97
403.115	1.07
403.47	1.05
403.826	1.05
404.181	1.13
404.536	1.17
404.892	1.24
405.247	1.19
405.602	1.23
405.957	1.31
406.312	1.31
406.667	1.35
407.022	1.37
407.377	1.27
407.732	1.35
408.087	1.37
408.442	1.52
408.796	1.59
409.151	1.62
409.506	1.73
409.86	1.72
410.215	1.84
410.57	1.81
410.924	1.92
411.279	1.86
411.633	1.95
411.987	1.95
412.342	2.04
412.696	2.03
413.05	2.12
413.404	2.17
413.758	2.21
414.113	2.24
414.467	2.24
414.821	2.28
415.175	2.38
415.529	2.4
415.882	2.4
416.236	2.5
416.59	2.58
416.944	2.64
417.298	2.64
417.651	2.61
418.005	2.62
418.358	2.57
418.712	2.71
419.065	2.62
419.419	2.64
419.772	2.65
420.126	2.64
420.479	2.75
420.832	2.83
421.185	2.89
421.539	2.96
421.892	2.91
422.245	2.9
422.598	2.96
422.951	2.99
423.304	3.03
423.657	2.96
424.01	3.04
424.363	3.06
424.715	3.11
425.068	3.18
425.421	3.27
425.773	3.28
426.126	3.3
426.479	3.36
426.831	3.32
427.184	3.5
427.536	3.54
427.889	3.67
428.241	3.78
428.593	3.74
428.945	3.85
429.298	3.84
429.65	3.85
430.002	3.91
430.354	3.9
430.706	3.95
431.058	4.02
431.41	4.06
431.762	4.15
432.114	4.15
432.466	4.35
432.817	4.28
433.169	4.28
433.521	4.38
433.872	4.31
434.224	4.19
434.576	4.18
434.927	4.15
435.279	4.16
435.63	4.19
435.981	4.06
436.333	3.98
436.684	4
437.035	3.86
437.387	3.85
437.738	3.88
438.089	3.79
438.44	3.67
438.791	3.57
439.142	3.56
439.493	3.56
439.844	3.44
440.195	3.3
440.545	3.31
440.896	3.28
441.247	3.22
441.598	3.19
441.948	3.29
442.299	3.24
442.649	3.22
443	3.16
443.35	3.1
443.701	3.02
444.051	3
444.401	3.01
444.752	2.96
445.102	2.91
445.452	2.83
445.802	2.87
446.152	2.94
446.502	2.91
446.852	2.96
447.202	2.98
447.552	3
447.902	2.97
448.252	2.87
448.602	2.96
448.952	3.06
449.301	3.06
449.651	3.02
450.001	2.97
450.35	2.97
450.7	2.9
451.049	2.93
451.399	2.99
451.748	3.05
452.097	3.18
452.447	3.21
452.796	3.17
453.145	3.24
453.494	3.36
453.843	3.49
454.193	3.6
454.542	3.71
454.891	3.79
455.239	3.74
455.588	3.75
455.937	3.78
456.286	3.75
456.635	3.95
456.984	4.12
457.332	4.2
457.681	4.19
458.03	4.33
458.378	4.51
458.727	4.57
459.075	4.76
459.423	4.83
459.772	4.93
460.12	5.01
460.468	5.21
460.817	5.33
461.165	5.52
461.513	5.55
461.861	5.59
462.209	5.55
462.557	5.6
462.905	5.66
463.253	5.57
463.601	5.47
463.949	5.61
464.297	5.61
464.644	5.69
464.992	5.69
465.34	5.62
465.687	5.55
466.035	5.53
466.383	5.6
466.73	5.47
467.078	5.49
467.425	5.45
467.772	5.32
468.12	5.29
468.467	5.11
468.814	5.11
469.161	4.94
469.508	4.82
469.856	4.72
470.203	4.78
470.55	4.69
470.897	4.62
471.243	4.39
471.59	4.26
471.937	4.25
472.284	4.22
472.631	4.06
472.977	4.07
473.324	4.05
473.671	4.09
474.017	4.02
474.364	3.98
474.71	3.87
475.057	3.79
475.403	3.68
475.749	3.59
476.096	3.53
476.442	3.56
476.788	3.52
477.134	3.53
477.48	3.48
477.826	3.54
478.172	3.59
478.518	3.55
478.864	3.46
479.21	3.49
479.556	3.53
479.902	3.76
480.248	3.84
480.593	3.89
480.939	3.98
481.285	4.02
481.63	4.05
481.976	4.08
482.321	4.2
482.667	4.29
483.012	4.44
483.357	4.67
483.703	4.79
484.048	5.06
484.393	5.23
484.738	5.48
485.084	5.67
485.429	6
485.774	6.31
486.119	6.5
486.464	6.87
486.808	7.1
487.153	7.54
487.498	7.99
487.843	8.48
488.188	8.91
488.532	9.27
488.877	9.75
489.222	10.36
489.566	10.92
489.911	11.52
490.255	12.21
490.6	12.86
490.944	13.45
491.288	14.23
491.633	14.9
491.977	15.52
492.321	16.19
492.665	16.81
493.009	17.52
493.353	18.29
493.697	19.15
494.041	19.88
494.385	20.67
494.729	21.63
495.073	22.42
495.417	23.34
495.76	24.2
496.104	25.07
496.448	25.89
496.791	26.83
497.135	27.8
497.479	28.73
497.822	29.53
498.165	30.43
498.509	31.4
498.852	32.29
499.196	33.35
499.539	34.3
499.882	35
500.225	35.91
500.568	36.72
500.911	37.6
501.254	38.46
501.597	39.31
501.94	40.06
502.283	40.84
502.626	41.63
502.969	42.41
503.312	43.01
503.654	43.71
503.997	44.49
504.34	45.11
504.682	45.72
505.025	46.32
505.367	46.93
505.71	47.64
506.052	48.33
506.395	49.11
506.737	49.67
507.079	50.13
507.421	50.76
507.764	51.23
508.106	51.74
508.448	52.37
508.79	52.76
509.132	53.25
509.474	53.75
509.816	54.17
510.158	54.58
510.499	54.94
510.841	55.2
511.183	55.59
511.525	55.88
511.866	56.3
512.208	56.52
512.549	56.76
512.891	57.03
513.232	57.43
513.574	57.87
513.915	58.21
514.256	58.37
514.598	58.54
514.939	58.76
515.28	58.88
515.621	59.13
515.962	59.27
516.303	59.52
516.644	59.73
516.985	59.84
517.326	60.07
517.667	60.18
518.008	60.31
518.349	60.51
518.69	60.71
519.03	60.9
519.371	61.15
519.712	61.26
520.052	61.38
520.393	61.52
520.733	61.74
521.074	61.89
521.414	62.15
521.754	62.25
522.095	62.28
522.435	62.36
522.775	62.59
523.115	62.84
523.455	62.88
523.795	63.22
524.135	63.45
524.475	63.79
524.815	63.74
525.155	63.75
525.495	63.99
525.835	64.22
526.175	64.48
526.514	64.72
526.854	64.86
527.194	64.87
527.533	64.97
527.873	65.03
528.212	64.9
528.552	64.95
528.891	65.21
529.23	65.27
529.57	65.34
529.909	65.35
530.248	65.39
530.587	65.51
530.927	65.56
531.266	65.47
531.605	65.69
531.944	65.86
532.283	65.87
532.621	65.96
532.96	65.8
533.299	65.94
533.638	66.17
533.977	66.02
534.315	66.06
534.654	66.14
534.992	66.04
535.331	66.18
535.67	66.21
536.008	66.18
536.346	66.17
536.685	66.39
537.023	66.53
537.361	66.41
537.7	66.59
538.038	66.74
538.376	66.9
538.714	66.96
539.052	66.97
539.39	66.93
539.728	67
540.066	66.8
540.404	66.84
540.741	66.81
541.079	66.66
541.417	66.73
541.755	66.94
542.092	66.95
542.43	67.23
542.767	67.3
543.105	67.36
543.442	67.38
543.78	67.23
544.117	67.3
544.454	67.53
544.792	67.7
545.129	67.6
545.466	67.5
545.803	67.64
546.14	67.66
546.477	67.68
546.814	67.62
547.151	67.66
547.488	67.75
547.825	67.92
548.162	68.02
548.499	68
548.835	68.03
549.172	68.08
549.509	68.33
549.845	68.37
550.182	68.26
550.518	68.08
550.855	68
551.191	67.96
551.528	68.01
551.864	68.05
552.2	68.08
552.537	68.2
552.873	68.35
553.209	68.23
553.545	68.33
553.881	68.73
554.217	68.61
554.553	68.51
554.889	68.47
555.225	68.59
555.561	68.7
555.896	68.45
556.232	68.42
556.568	68.37
556.903	68.48
557.239	68.46
557.575	68.49
557.91	68.49
558.245	68.47
558.581	68.51
558.916	68.73
559.252	68.96
559.587	68.94
559.922	68.78
560.257	68.85
560.592	68.83
560.928	68.81
561.263	68.79
561.598	68.82
561.933	68.86
562.267	68.64
562.602	68.67
562.937	68.67
563.272	68.81
563.607	68.83
563.941	68.87
564.276	69.4
564.611	69.46
564.945	69.61
565.28	69.62
565.614	69.63
565.949	69.76
566.283	69.95
566.617	69.89
566.951	69.85
567.286	69.9
567.62	69.84
567.954	69.87
568.288	69.88
568.622	69.82
568.956	70
569.29	70.07
569.624	69.97
569.958	69.92
570.292	69.98
570.626	69.99
570.959	70.1
571.293	70.14
571.627	70.03
571.96	69.97
572.294	70.01
572.627	69.68
572.961	69.55
573.294	69.48
573.627	69.51
573.961	69.46
574.294	69.41
574.627	69.26
574.961	69.3
575.294	69.5
575.627	69.54
575.96	69.38
576.293	69.28
576.626	69.25
576.959	69.3
577.292	69.25
577.624	69.14
577.957	69.2
578.29	69.4
578.623	69.46
578.955	69.54
579.288	69.5
579.62	69.54
579.953	69.57
580.285	69.53
580.618	69.45
580.95	69.64
581.282	69.87
581.615	70.01
581.947	69.98
582.279	70.02
582.611	70.07
582.943	70.15
583.275	70.29
583.607	70.25
583.939	70.12
584.271	70.28
584.603	70.39
584.935	70.5
585.267	70.61
585.598	70.61
585.93	70.79
586.262	70.77
586.593	70.62
586.925	70.51
587.256	70.55
587.588	70.63
587.919	70.6
588.25	70.65
588.582	70.65
588.913	70.75
589.244	70.78
589.575	70.66
589.907	70.5
590.238	70.62
590.569	70.65
590.9	70.7
591.231	70.66
591.562	70.33
591.892	70.29
592.223	70.4
592.554	70.24
592.885	70.3
593.215	70.1
593.546	69.94
593.877	69.78
594.207	69.6
594.538	69.7
594.868	69.81
595.198	69.89
595.529	69.84
595.859	69.74
596.189	69.83
596.52	69.86
596.85	70.06
597.18	70.08
597.51	70.04
597.84	70.16
598.17	70.16
598.5	70
598.83	69.95
599.16	69.84
599.489	69.92
599.819	70.29
600.149	70.26
600.479	70.25
600.808	70.38
601.138	70.38
601.467	70.6
601.797	70.71
602.126	70.79
602.456	70.86
602.785	70.72
603.114	70.62
603.443	70.56
603.773	70.5
604.102	70.56
604.431	70.53
604.76	70.52
605.089	70.32
605.418	70.25
605.747	70.19
606.076	70.01
606.405	70.03
606.733	70.23
607.062	70.31
607.391	70.33
607.72	70.15
608.048	70.12
608.377	70.09
608.705	70.15
609.034	70.13
609.362	70.03
609.69	69.96
610.019	69.85
610.347	69.93
610.675	70
611.004	69.79
611.332	69.76
611.66	69.71
611.988	69.63
612.316	69.59
612.644	69.44
612.972	69.38
613.3	69.43
613.627	69.42
613.955	69.38
614.283	69.47
614.611	69.45
614.938	69.17
615.266	69.02
615.593	68.94
615.921	69.08
616.248	68.73
616.576	68.84
616.903	68.61
617.23	68.65
617.558	68.86
617.885	69.11
618.212	69.09
618.539	68.83
618.866	68.89
619.193	69.16
619.52	69.2
619.847	69.25
620.174	69.34
620.501	69.3
620.828	69.32
621.155	69.18
621.481	69.17
621.808	69.16
622.135	69.33
622.461	69.37
622.788	69.24
623.114	69.52
623.441	69.72
623.767	69.9
624.093	70.05
624.42	70.27
624.746	70.28
625.072	70.43
625.398	70.22
625.725	70.12
626.051	70.02
626.377	70.44
626.703	70.89
627.029	70.78
627.354	70.88
627.68	70.78
628.006	70.95
628.332	70.7
628.658	70.76
628.983	70.99
629.309	71.31
629.634	71.43
629.96	71.4
630.285	70.99
630.611	70.94
630.936	71.24
631.262	71.09
631.587	70.88
631.912	71.22
632.237	70.85
632.562	70.61
632.887	70.42
633.213	70.48
633.538	71
633.863	71.07
634.187	71.07
634.512	70.68
634.837	70.92
635.162	71.2
635.487	71.08
635.811	71.47
636.136	71.11
636.461	71.26
636.785	70.97
637.11	71.02
637.434	70.81
637.758	70.87
638.083	71.04
638.407	71.83
638.731	71.85
639.056	72.18
639.38	72.07
639.704	72.08
640.028	71.34
640.352	71.51
640.676	71.7
641	71.41
641.324	71.22
641.648	70.86
641.972	70.82
642.295	70.33
642.619	70.31
642.943	69.7
643.266	69.53
643.59	68.92
643.913	68.69
644.237	68.77
644.56	68.37
644.884	69.29
645.207	69.43
645.53	69.44
645.854	69.03
646.177	68.42
646.5	68.13
646.823	67.95
647.146	67.92
647.469	67.57
647.792	67.2
648.115	67.57
648.438	67.3
648.761	68.18
649.084	68.52
649.406	69.09
649.729	69.41
650.052	69.33
650.374	69.31
650.697	69.42
651.019	69.45
651.342	69.38
651.664	69.57
651.987	69.51
652.309	69.48
652.631	69.76
652.953	69.62
653.276	69.52
653.598	69.65
653.92	69.74
654.242	69.77
654.564	69.7
654.886	69.79
655.208	69.53
655.53	69.61
655.851	69.66
656.173	69.66
656.495	69.71
656.816	69.34
657.138	69.41
657.46	68.72
657.781	67.79
658.103	67.41
658.424	67.64
658.746	66.75
659.067	66.66
659.388	66.85
659.709	66.84
660.031	66.73
660.352	67.1
660.673	67.1
660.994	66.71
661.315	66.88
661.636	66.08
661.957	65.45
662.278	65.85
662.599	65.89
662.919	65.97
663.24	66.76
663.561	66.95
663.881	67.9
664.202	68.06
