Data from T1_Reflection__11__20-16-16-460.txt Node

Date: Wed Jun 02 20:16:16 CEST 2021
User: mabdelazizm
Spectrometer: FLMS18565
Trigger mode: 0
Integration Time (sec): 2.000000E0
Scans to average: 1
Electric dark correction enabled: true
Nonlinearity correction enabled: false
Boxcar width: 12
XAxis mode: Wavelengths
Number of Pixels in Spectrum: 2048
>>>>>Begin Spectral Data<<<<<
179.071	117.32
179.452	116.56
179.833	97.44
180.214	79.09
180.595	76.48
180.977	113.11
181.358	93.1
181.739	157.92
182.12	150.59
182.501	117.86
182.882	112.69
183.262	157
183.643	-129.88
184.024	8.89
184.405	29.35
184.786	31.75
185.166	33.22
185.547	29.02
185.927	18.94
186.308	25.93
186.689	21.73
187.069	17.75
187.449	21.01
187.83	18.93
188.21	25.54
188.59	22.64
188.971	20.67
189.351	17.01
189.731	14.27
190.111	12.96
190.491	13.53
190.871	12.77
191.251	14.72
191.631	13.64
192.011	13.94
192.391	13.61
192.771	14.42
193.151	13.42
193.531	12.66
193.91	9.06
194.29	7.24
194.67	8.32
195.049	9.08
195.429	9.77
195.808	9.04
196.188	9.54
196.567	8.46
196.946	8.29
197.326	7.75
197.705	5.92
198.084	5.27
198.464	5.78
198.843	5.83
199.222	7.63
199.601	8.68
199.98	8.64
200.359	9.53
200.738	10.17
201.117	10.33
201.496	9.07
201.875	9.59
202.254	9.44
202.632	8.52
203.011	8.37
203.39	10.34
203.768	9.63
204.147	9.43
204.525	8.3
204.904	9.26
205.282	9.43
205.661	8.95
206.039	9.02
206.418	8.15
206.796	9.18
207.174	8.98
207.552	10.22
207.931	9.61
208.309	10.22
208.687	9.19
209.065	8.4
209.443	8.24
209.821	7.79
210.199	6.59
210.577	5.8
210.954	5.49
211.332	4.86
211.71	4.8
212.088	5.9
212.465	5.78
212.843	5.24
213.221	5.78
213.598	5.74
213.976	6.37
214.353	5.8
214.731	5.3
215.108	5.49
215.485	5.94
215.863	5.81
216.24	4.95
216.617	4.83
216.994	4.67
217.371	4.72
217.749	4.13
218.126	4.14
218.503	4.15
218.88	4.32
219.256	3.77
219.633	3.72
220.01	3.72
220.387	3.82
220.764	3.98
221.14	3.98
221.517	3.67
221.894	3.44
222.27	3.19
222.647	3.19
223.023	3.01
223.4	3.1
223.776	2.76
224.153	2.87
224.529	2.5
224.905	2.65
225.282	2.71
225.658	2.64
226.034	2.75
226.41	2.62
226.786	2.88
227.162	3.03
227.538	2.84
227.914	2.84
228.29	2.69
228.666	2.7
229.042	2.59
229.418	2.71
229.793	2.77
230.169	2.75
230.545	2.45
230.92	2.55
231.296	2.51
231.672	2.45
232.047	2.48
232.422	2.49
232.798	2.23
233.173	2.3
233.549	2.14
233.924	2.26
234.299	2.26
234.674	2.14
235.05	2.24
235.425	2.08
235.8	2.16
236.175	2.03
236.55	1.99
236.925	2.04
237.3	1.97
237.675	1.93
238.049	1.99
238.424	1.95
238.799	1.87
239.174	1.82
239.548	1.82
239.923	1.78
240.297	1.6
240.672	1.58
241.046	1.59
241.421	1.59
241.795	1.53
242.17	1.59
242.544	1.58
242.918	1.67
243.293	1.64
243.667	1.55
244.041	1.57
244.415	1.48
244.789	1.46
245.163	1.39
245.537	1.39
245.911	1.36
246.285	1.36
246.659	1.39
247.033	1.47
247.406	1.37
247.78	1.39
248.154	1.45
248.528	1.46
248.901	1.43
249.275	1.5
249.648	1.51
250.022	1.5
250.395	1.49
250.769	1.49
251.142	1.53
251.515	1.54
251.888	1.55
252.262	1.47
252.635	1.44
253.008	1.49
253.381	1.51
253.754	1.54
254.127	1.61
254.5	1.61
254.873	1.62
255.246	1.65
255.619	1.58
255.992	1.56
256.364	1.47
256.737	1.52
257.11	1.57
257.483	1.53
257.855	1.54
258.228	1.57
258.6	1.58
258.973	1.57
259.345	1.52
259.718	1.53
260.09	1.54
260.462	1.48
260.834	1.43
261.207	1.34
261.579	1.39
261.951	1.4
262.323	1.37
262.695	1.32
263.067	1.31
263.439	1.23
263.811	1.2
264.183	1.2
264.555	1.23
264.927	1.23
265.298	1.26
265.67	1.27
266.042	1.21
266.413	1.09
266.785	1.13
267.156	1.11
267.528	1.08
267.899	1.08
268.271	1.04
268.642	1.1
269.013	1.1
269.385	1.09
269.756	1.11
270.127	1.1
270.498	1.17
270.87	1.19
271.241	1.14
271.612	1.14
271.983	1.14
272.354	1.17
272.724	1.21
273.095	1.22
273.466	1.2
273.837	1.13
274.208	1.1
274.578	1.04
274.949	1.1
275.32	1.11
275.69	1.15
276.061	1.08
276.431	1.03
276.802	1.04
277.172	1.05
277.542	1.04
277.913	1.03
278.283	1.02
278.653	1.01
279.023	0.98
279.394	1.02
279.764	1.02
280.134	0.99
280.504	1.04
280.874	1.07
281.244	1.07
281.614	1.02
281.983	1.01
282.353	1.02
282.723	1.03
283.093	1.06
283.462	1.08
283.832	1.08
284.202	1.03
284.571	1.03
284.941	1.06
285.31	1.01
285.68	0.96
286.049	0.93
286.418	0.89
286.788	0.97
287.157	0.99
287.526	0.94
287.895	0.9
288.264	0.97
288.633	0.95
289.002	0.92
289.371	0.91
289.74	0.86
290.109	0.88
290.478	0.88
290.847	0.89
291.216	0.85
291.585	0.83
291.953	0.78
292.322	0.76
292.691	0.75
293.059	0.75
293.428	0.77
293.796	0.79
294.165	0.72
294.533	0.74
294.901	0.82
295.27	0.81
295.638	0.85
296.006	0.81
296.374	0.8
296.743	0.83
297.111	0.83
297.479	0.76
297.847	0.75
298.215	0.74
298.583	0.71
298.95	0.75
299.318	0.7
299.686	0.67
300.054	0.66
300.422	0.69
300.789	0.66
301.157	0.65
301.525	0.68
301.892	0.67
302.26	0.65
302.627	0.62
302.994	0.62
303.362	0.7
303.729	0.79
304.097	0.79
304.464	0.82
304.831	0.84
305.198	0.83
305.565	0.82
305.932	0.87
306.299	0.9
306.666	0.92
307.033	0.94
307.4	0.95
307.767	0.94
308.134	0.96
308.501	0.97
308.867	1.02
309.234	1.04
309.601	1.02
309.967	1.06
310.334	1.07
310.701	1.04
311.067	1.04
311.433	1.09
311.8	1.05
312.166	1.03
312.533	1.03
312.899	1
313.265	0.94
313.631	0.92
313.997	0.89
314.363	0.92
314.729	0.91
315.096	0.91
315.461	0.86
315.827	0.85
316.193	0.92
316.559	0.89
316.925	0.9
317.291	0.83
317.656	0.83
318.022	0.79
318.388	0.74
318.753	0.75
319.119	0.76
319.484	0.8
319.85	0.78
320.215	0.79
320.581	0.72
320.946	0.74
321.311	0.73
321.676	0.68
322.042	0.65
322.407	0.67
322.772	0.67
323.137	0.64
323.502	0.65
323.867	0.61
324.232	0.56
324.597	0.59
324.962	0.64
325.327	0.63
325.691	0.66
326.056	0.64
326.421	0.72
326.785	0.7
327.15	0.72
327.514	0.72
327.879	0.77
328.243	0.69
328.608	0.7
328.972	0.7
329.337	0.74
329.701	0.79
330.065	0.81
330.429	0.74
330.794	0.79
331.158	0.87
331.522	0.85
331.886	0.87
332.25	0.89
332.614	0.84
332.978	0.83
333.342	0.83
333.705	0.81
334.069	0.74
334.433	0.67
334.797	0.64
335.16	0.62
335.524	0.58
335.887	0.59
336.251	0.53
336.614	0.48
336.978	0.42
337.341	0.5
337.705	0.52
338.068	0.54
338.431	0.48
338.794	0.45
339.158	0.41
339.521	0.41
339.884	0.37
340.247	0.27
340.61	0.34
340.973	0.3
341.336	0.31
341.699	0.37
342.062	0.37
342.424	0.34
342.787	0.34
343.15	0.35
343.512	0.34
343.875	0.39
344.238	0.44
344.6	0.34
344.963	0.3
345.325	0.31
345.688	0.37
346.05	0.38
346.412	0.37
346.775	0.27
347.137	0.27
347.499	0.32
347.861	0.32
348.223	0.4
348.585	0.5
348.947	0.49
349.309	0.45
349.671	0.36
350.033	0.38
350.395	0.37
350.757	0.33
351.118	0.4
351.48	0.47
351.842	0.43
352.203	0.47
352.565	0.45
352.927	0.4
353.288	0.35
353.65	0.45
354.011	0.44
354.372	0.53
354.734	0.53
355.095	0.52
355.456	0.47
355.817	0.52
356.179	0.5
356.54	0.46
356.901	0.5
357.262	0.39
357.623	0.4
357.984	0.38
358.345	0.37
358.705	0.42
359.066	0.37
359.427	0.44
359.788	0.42
360.148	0.3
360.509	0.23
360.87	0.29
361.23	0.2
361.591	0.19
361.951	0.19
362.312	0.17
362.672	0.12
363.032	0.11
363.393	0.01
363.753	0.03
364.113	-0
364.473	0.1
364.833	0.07
365.193	0.07
365.553	0.04
365.913	0.04
366.273	0.05
366.633	-0.02
366.993	-0.03
367.353	-0.04
367.713	-0.07
368.072	-0.08
368.432	-0.18
368.792	-0.2
369.151	-0.1
369.511	-0.06
369.87	-0.11
370.23	-0.09
370.589	-0.01
370.949	-0.01
371.308	0.12
371.667	0.12
372.027	0.21
372.386	0.26
372.745	0.26
373.104	0.28
373.463	0.17
373.822	0.15
374.181	0.09
374.54	0.1
374.899	0.04
375.258	0.04
375.617	0.05
375.975	0.06
376.334	0.13
376.693	0.18
377.052	0.24
377.41	0.23
377.769	0.2
378.127	0.09
378.486	0.08
378.844	0.06
379.202	0.11
379.561	0.04
379.919	0
380.277	-0.07
380.636	-0.02
380.994	-0.05
381.352	-0.03
381.71	-0.04
382.068	-0
382.426	0.02
382.784	0.11
383.142	0.16
383.5	0.21
383.857	0.25
384.215	0.27
384.573	0.28
384.931	0.31
385.288	0.3
385.646	0.22
386.003	0.15
386.361	0.18
386.718	0.24
387.076	0.29
387.433	0.25
387.791	0.28
388.148	0.25
388.505	0.26
388.862	0.33
389.22	0.32
389.577	0.31
389.934	0.35
390.291	0.35
390.648	0.28
391.005	0.26
391.362	0.22
391.718	0.12
392.075	0.09
392.432	0.11
392.789	0.1
393.145	0.14
393.502	0.15
393.859	0.06
394.215	0.05
394.572	0.08
394.928	0.11
395.285	0.05
395.641	0.04
395.997	0.02
396.354	0.12
396.71	0.07
397.066	0.04
397.422	0.08
397.778	0.02
398.134	0.03
398.491	0.04
398.846	-0.09
399.202	-0.03
399.558	0.08
399.914	0.1
400.27	0.07
400.626	0.04
400.981	0.11
401.337	0.08
401.693	0.08
402.048	0.05
402.404	0.09
402.759	0.19
403.115	0.26
403.47	0.26
403.826	0.39
404.181	0.45
404.536	0.47
404.892	0.54
405.247	0.5
405.602	0.57
405.957	0.64
406.312	0.6
406.667	0.7
407.022	0.75
407.377	0.75
407.732	0.82
408.087	0.77
408.442	0.89
408.796	0.88
409.151	1.04
409.506	1.11
409.86	1.04
410.215	1.08
410.57	1.15
410.924	1.22
411.279	1.21
411.633	1.25
411.987	1.31
412.342	1.44
412.696	1.37
413.05	1.44
413.404	1.54
413.758	1.64
414.113	1.75
414.467	1.83
414.821	1.95
415.175	2.11
415.529	2.2
415.882	2.24
416.236	2.35
416.59	2.51
416.944	2.66
417.298	2.7
417.651	2.75
418.005	2.77
418.358	2.93
418.712	3.23
419.065	3.38
419.419	3.43
419.772	3.56
420.126	3.7
420.479	3.93
420.832	4.02
421.185	4.11
421.539	4.3
421.892	4.39
422.245	4.48
422.598	4.61
422.951	4.71
423.304	4.81
423.657	4.88
424.01	5.07
424.363	5.26
424.715	5.47
425.068	5.65
425.421	5.83
425.773	5.96
426.126	6.08
426.479	6.3
426.831	6.47
427.184	6.72
427.536	6.85
427.889	7.1
428.241	7.4
428.593	7.55
428.945	7.81
429.298	8
429.65	8.19
430.002	8.38
430.354	8.58
430.706	8.77
431.058	8.97
431.41	9.2
431.762	9.42
432.114	9.64
432.466	9.91
432.817	10.13
433.169	10.25
433.521	10.54
433.872	10.72
434.224	10.89
434.576	11.11
434.927	11.32
435.279	11.53
435.63	11.7
435.981	11.8
436.333	11.97
436.684	12.04
437.035	12.18
437.387	12.29
437.738	12.35
438.089	12.32
438.44	12.43
438.791	12.55
439.142	12.64
439.493	12.79
439.844	12.85
440.195	13
440.545	13.13
440.896	13.32
441.247	13.42
441.598	13.48
441.948	13.62
442.299	13.67
442.649	13.78
443	13.85
443.35	13.9
443.701	13.95
444.051	13.98
444.401	14.11
444.752	14.21
445.102	14.28
445.452	14.37
445.802	14.33
446.152	14.48
446.502	14.65
446.852	14.83
447.202	14.92
447.552	15.11
447.902	15.32
448.252	15.4
448.602	15.51
448.952	15.62
449.301	15.71
449.651	15.77
450.001	15.84
450.35	15.88
450.7	15.98
451.049	16.06
451.399	16.29
451.748	16.42
452.097	16.54
452.447	16.74
452.796	16.89
453.145	17.08
453.494	17.08
453.843	17.14
454.193	17.35
454.542	17.64
454.891	17.81
455.239	17.8
455.588	17.96
455.937	18.11
456.286	18.07
456.635	18.21
456.984	18.29
457.332	18.61
457.681	18.76
458.03	19.01
458.378	19.14
458.727	19.27
459.075	19.44
459.423	19.74
459.772	19.93
460.12	20.05
460.468	20.38
460.817	20.64
461.165	20.7
461.513	20.93
461.861	20.99
462.209	21.29
462.557	21.47
462.905	21.53
463.253	21.61
463.601	21.61
463.949	21.85
464.297	21.93
464.644	21.98
464.992	22.31
465.34	22.44
465.687	22.61
466.035	22.64
466.383	22.58
466.73	22.55
467.078	22.64
467.425	22.75
467.772	22.82
468.12	22.73
468.467	22.72
468.814	22.7
469.161	22.55
469.508	22.37
469.856	22.35
470.203	22.25
470.55	22.18
470.897	22
471.243	21.95
471.59	21.81
471.937	21.74
472.284	21.72
472.631	21.7
472.977	21.63
473.324	21.66
473.671	21.52
474.017	21.28
474.364	21.23
474.71	21.11
475.057	21
475.403	20.92
475.749	20.91
476.096	20.86
476.442	20.91
476.788	20.92
477.134	20.92
477.48	20.9
477.826	20.91
478.172	21.07
478.518	21.14
478.864	21.2
479.21	21.28
479.556	21.39
479.902	21.52
480.248	21.78
480.593	21.82
480.939	21.99
481.285	22.04
481.63	22.17
481.976	22.28
482.321	22.46
482.667	22.7
483.012	22.89
483.357	23.19
483.703	23.48
484.048	23.82
484.393	24.05
484.738	24.4
485.084	24.6
485.429	24.85
485.774	25.15
486.119	25.45
486.464	25.8
486.808	25.99
487.153	26.33
487.498	26.74
487.843	27.2
488.188	27.62
488.532	27.98
488.877	28.33
489.222	28.91
489.566	29.3
489.911	29.69
490.255	30.27
490.6	30.72
490.944	31.05
491.288	31.55
491.633	31.96
491.977	32.29
492.321	32.66
492.665	32.93
493.009	33.37
493.353	33.74
493.697	34.16
494.041	34.64
494.385	35.11
494.729	35.52
495.073	35.98
495.417	36.49
495.76	36.89
496.104	37.26
496.448	37.71
496.791	38.12
497.135	38.54
497.479	39
497.822	39.33
498.165	39.93
498.509	40.54
498.852	40.88
499.196	41.44
499.539	42
499.882	42.38
500.225	42.93
500.568	43.47
500.911	44.04
501.254	44.72
501.597	45.22
501.94	45.7
502.283	46.3
502.626	46.8
502.969	47.36
503.312	47.88
503.654	48.42
503.997	49.08
504.34	49.57
504.682	50.2
505.025	50.67
505.367	51.31
505.71	51.97
506.052	52.6
506.395	53.3
506.737	53.73
507.079	54.22
507.421	54.84
507.764	55.33
508.106	55.8
508.448	56.36
508.79	56.8
509.132	57.4
509.474	57.84
509.816	58.21
510.158	58.75
510.499	59.2
510.841	59.55
511.183	60.04
511.525	60.28
511.866	60.65
512.208	60.9
512.549	61.2
512.891	61.69
513.232	61.98
513.574	62.44
513.915	62.7
514.256	63.05
514.598	63.32
514.939	63.6
515.28	63.93
515.621	64.22
515.962	64.52
516.303	64.85
516.644	65.24
516.985	65.47
517.326	65.8
517.667	65.82
518.008	66.14
518.349	66.4
518.69	66.45
519.03	66.64
519.371	66.96
519.712	67.12
520.052	67.36
520.393	67.62
520.733	67.91
521.074	68.06
521.414	68.3
521.754	68.55
522.095	68.58
522.435	68.89
522.775	69.15
523.115	69.36
523.455	69.47
523.795	69.58
524.135	69.69
524.475	69.91
524.815	70.02
525.155	69.95
525.495	70.07
525.835	70.26
526.175	70.52
526.514	70.67
526.854	70.77
527.194	70.87
527.533	70.87
527.873	70.98
528.212	70.91
528.552	71.02
528.891	71.16
529.23	71.18
529.57	71.18
529.909	71.21
530.248	71.19
530.587	71.24
530.927	71.18
531.266	70.94
531.605	71.06
531.944	71.06
532.283	71.23
532.621	71.24
532.96	71.31
533.299	71.37
533.638	71.72
533.977	71.72
534.315	71.76
534.654	71.82
534.992	71.62
535.331	71.69
535.67	71.66
536.008	71.73
536.346	71.69
536.685	71.87
537.023	72
537.361	72.05
537.7	72.27
538.038	72.39
538.376	72.49
538.714	72.62
539.052	72.78
539.39	72.7
539.728	72.86
540.066	72.97
540.404	73.11
540.741	73.04
541.079	73.02
541.417	72.96
541.755	73.03
542.092	72.95
542.43	73.12
542.767	73.08
543.105	73.04
543.442	73.21
543.78	73.07
544.117	73.11
544.454	73.32
544.792	73.3
545.129	73.38
545.466	73.16
545.803	73.18
546.14	73.13
546.477	73.23
546.814	73.17
547.151	73.05
547.488	72.9
547.825	73.09
548.162	73.19
548.499	73.19
548.835	73.23
549.172	73.22
549.509	73.28
549.845	73.17
550.182	73.17
550.518	73.17
550.855	73.07
551.191	73.1
551.528	73.11
551.864	73.24
552.2	73.52
552.537	73.71
552.873	73.74
553.209	73.83
553.545	73.81
553.881	74.14
554.217	74.16
554.553	74.15
554.889	74.11
555.225	74.33
555.561	74.4
555.896	74.45
556.232	74.4
556.568	74.32
556.903	74.2
557.239	74.14
557.575	74.12
557.91	74.29
558.245	74.5
558.581	74.42
558.916	74.58
559.252	74.74
559.587	74.84
559.922	74.72
560.257	74.76
560.592	74.56
560.928	74.52
561.263	74.4
561.598	74.26
561.933	74.34
562.267	74.22
562.602	74.3
562.937	74.09
563.272	74.28
563.607	74.07
563.941	74.04
564.276	74.51
564.611	74.67
564.945	74.78
565.28	74.7
565.614	74.89
565.949	75.13
566.283	75.1
566.617	74.99
566.951	75.06
567.286	75.14
567.62	75.09
567.954	75.06
568.288	75.17
568.622	74.88
568.956	74.89
569.29	74.86
569.624	74.91
569.958	74.94
570.292	74.9
570.626	74.86
570.959	74.88
571.293	75.08
571.627	75.04
571.96	75.11
572.294	75.17
572.627	74.99
572.961	74.93
573.294	74.82
573.627	74.92
573.961	74.98
574.294	74.89
574.627	74.8
574.961	74.88
575.294	75.03
575.627	74.9
575.96	74.9
576.293	74.81
576.626	74.81
576.959	74.88
577.292	74.94
577.624	74.94
577.957	74.92
578.29	74.91
578.623	74.87
578.955	74.93
579.288	74.74
579.62	74.63
579.953	74.59
580.285	74.5
580.618	74.48
580.95	74.49
581.282	74.54
581.615	74.67
581.947	74.67
582.279	74.54
582.611	74.51
582.943	74.67
583.275	74.63
583.607	74.51
583.939	74.48
584.271	74.36
584.603	74.43
584.935	74.35
585.267	74.43
585.598	74.4
585.93	74.51
586.262	74.44
586.593	74.44
586.925	74.53
587.256	74.59
587.588	74.67
587.919	74.57
588.25	74.57
588.582	74.64
588.913	74.66
589.244	74.67
589.575	74.68
589.907	74.79
590.238	74.76
590.569	74.78
590.9	74.91
591.231	74.73
591.562	74.72
591.892	74.6
592.223	74.62
592.554	74.72
592.885	74.69
593.215	74.66
593.546	74.56
593.877	74.54
594.207	74.32
594.538	74.49
594.868	74.61
595.198	74.69
595.529	74.54
595.859	74.65
596.189	74.85
596.52	74.86
596.85	74.95
597.18	75.04
597.51	75.03
597.84	75.05
598.17	74.77
598.5	74.67
598.83	74.55
599.16	74.41
599.489	74.43
599.819	74.43
600.149	74.45
600.479	74.6
600.808	74.7
601.138	74.71
601.467	74.92
601.797	75.1
602.126	75.25
602.456	75.38
602.785	75.2
603.114	75.14
603.443	74.97
603.773	75.07
604.102	74.99
604.431	75.04
604.76	74.96
605.089	74.85
605.418	74.73
605.747	74.65
606.076	74.53
606.405	74.47
606.733	74.68
607.062	74.8
607.391	74.96
607.72	74.86
608.048	74.76
608.377	74.55
608.705	74.38
609.034	74.22
609.362	74.02
609.69	74.02
610.019	73.98
610.347	73.76
610.675	73.69
611.004	73.55
611.332	73.5
611.66	73.39
611.988	73.37
612.316	73.4
612.644	73.32
612.972	73.4
613.3	73.44
613.627	73.34
613.955	73.38
614.283	73.34
614.611	73.48
614.938	73.17
615.266	72.94
615.593	72.64
615.921	72.77
616.248	72.65
616.576	73.15
616.903	72.96
617.23	73.01
617.558	73.31
617.885	73.18
618.212	73.05
618.539	73.14
618.866	73.34
619.193	73.68
619.52	73.52
619.847	73.55
620.174	73.48
620.501	73.38
620.828	73.13
621.155	72.97
621.481	72.87
621.808	72.88
622.135	72.86
622.461	72.81
622.788	72.74
623.114	72.8
623.441	73.13
623.767	73.25
624.093	73.33
624.42	73.62
624.746	73.48
625.072	73.74
625.398	73.69
625.725	73.86
626.051	73.63
626.377	73.85
626.703	73.74
627.029	73.75
627.354	73.66
627.68	73.78
628.006	74.04
628.332	73.82
628.658	73.96
628.983	74.07
629.309	74.41
629.634	74.08
629.96	74.53
630.285	74.27
630.611	74.71
630.936	75.15
631.262	75.47
631.587	75.18
631.912	75.4
632.237	75.43
632.562	75.51
632.887	75.65
633.213	75.58
633.538	75.87
633.863	75.66
634.187	75.83
634.512	75.69
634.837	75.92
635.162	75.92
635.487	75.32
635.811	75.9
636.136	75.68
636.461	75.78
636.785	75.86
637.11	75.94
637.434	75.46
637.758	76.04
638.083	75.93
638.407	76.37
638.731	76.03
639.056	75.52
639.38	74.87
639.704	74.83
640.028	74.84
640.352	74.76
640.676	74.85
641	74.29
641.324	73.69
641.648	73.09
641.972	73.08
642.295	72.82
642.619	72.5
642.943	72.32
643.266	72.39
643.59	72.87
643.913	72.5
644.237	72.51
644.56	72.42
644.884	72.65
645.207	73.11
645.53	73.45
645.854	73.34
646.177	73.03
646.5	73.18
646.823	72.82
647.146	73.24
647.469	73.41
647.792	73.46
648.115	73.25
648.438	73.31
648.761	73.39
649.084	73.84
649.406	74.69
649.729	74.76
650.052	74.73
650.374	74.84
650.697	74.92
651.019	74.82
651.342	74.68
651.664	74.67
651.987	74.54
652.309	74.69
652.631	74.8
652.953	74.5
653.276	74.39
653.598	74.49
653.92	74.4
654.242	74.23
654.564	74.05
654.886	74.32
655.208	74.28
655.53	74.32
655.851	74.28
656.173	74.56
656.495	74.6
656.816	74.61
657.138	74.27
657.46	73.7
657.781	73.25
658.103	72.79
658.424	72.46
658.746	71.63
659.067	71.55
659.388	71.87
659.709	72.23
660.031	72.05
660.352	71.74
660.673	72.03
