Data from T1_Reflection__15__20-19-12-454.txt Node

Date: Wed Jun 02 20:19:12 CEST 2021
User: mabdelazizm
Spectrometer: FLMS18565
Trigger mode: 0
Integration Time (sec): 2.000000E0
Scans to average: 1
Electric dark correction enabled: true
Nonlinearity correction enabled: false
Boxcar width: 12
XAxis mode: Wavelengths
Number of Pixels in Spectrum: 2048
>>>>>Begin Spectral Data<<<<<
179.071	55.23
179.452	70.22
179.833	57.72
180.214	28.18
180.595	1.98
180.977	1.4
181.358	52.06
181.739	91.67
182.12	45.07
182.501	-50.55
182.882	4.02
183.262	92
183.643	-87.8
184.024	16.21
184.405	20.16
184.786	21.5
185.166	21.46
185.547	13.81
185.927	6.25
186.308	12.4
186.689	10.46
187.069	10.74
187.449	15.8
187.83	12.7
188.21	14.63
188.59	15.59
188.971	15.06
189.351	11.32
189.731	9.95
190.111	9.04
190.491	9.04
190.871	11.13
191.251	12.78
191.631	12.1
192.011	9.8
192.391	9.16
192.771	10.86
193.151	10.32
193.531	10.05
193.91	8.56
194.29	7.27
194.67	8.45
195.049	10.56
195.429	9.55
195.808	9.14
196.188	8.61
196.567	7.79
196.946	7.87
197.326	8.14
197.705	8.57
198.084	7.47
198.464	8.22
198.843	8.68
199.222	7.68
199.601	6.95
199.98	7
200.359	7.16
200.738	7.48
201.117	7.29
201.496	6.42
201.875	7.33
202.254	7.58
202.632	7.18
203.011	6.19
203.39	5.84
203.768	4.59
204.147	4.09
204.525	3.06
204.904	3.4
205.282	3.6
205.661	3.56
206.039	2.9
206.418	2.85
206.796	3.32
207.174	2.68
207.552	2.76
207.931	2.36
208.309	2.52
208.687	3.01
209.065	4.1
209.443	4.7
209.821	4.38
210.199	2.94
210.577	1.97
210.954	2.55
211.332	2.7
211.71	2.64
212.088	3.01
212.465	2.24
212.843	2.99
213.221	3.83
213.598	4.03
213.976	4.28
214.353	4.38
214.731	4.24
215.108	4.1
215.485	4.17
215.863	3.72
216.24	3.02
216.617	3.06
216.994	3.5
217.371	3.42
217.749	3.14
218.126	3.04
218.503	1.92
218.88	1.67
219.256	1.72
219.633	1.91
220.01	2.12
220.387	1.72
220.764	1.54
221.14	1.43
221.517	1.64
221.894	1.88
222.27	1.43
222.647	1.36
223.023	1.36
223.4	1.54
223.776	1.74
224.153	1.79
224.529	1.77
224.905	2.03
225.282	2.25
225.658	2.38
226.034	2.01
226.41	1.93
226.786	1.93
227.162	2.11
227.538	1.98
227.914	2.25
228.29	2.15
228.666	2.03
229.042	2.2
229.418	2.17
229.793	2.34
230.169	2.27
230.545	2
230.92	1.95
231.296	1.83
231.672	1.88
232.047	1.92
232.422	1.87
232.798	1.73
233.173	1.63
233.549	1.44
233.924	1.28
234.299	1.33
234.674	1.32
235.05	1.31
235.425	1.38
235.8	1.38
236.175	1.43
236.55	1.34
236.925	1.31
237.3	1.19
237.675	1.13
238.049	1.08
238.424	0.93
238.799	0.95
239.174	0.91
239.548	1.02
239.923	1.07
240.297	1.02
240.672	1.01
241.046	0.95
241.421	0.92
241.795	0.91
242.17	0.88
242.544	0.89
242.918	0.9
243.293	0.96
243.667	0.89
244.041	0.81
244.415	0.76
244.789	0.71
245.163	0.64
245.537	0.56
245.911	0.56
246.285	0.59
246.659	0.6
247.033	0.63
247.406	0.64
247.78	0.64
248.154	0.64
248.528	0.64
248.901	0.56
249.275	0.58
249.648	0.51
250.022	0.48
250.395	0.49
250.769	0.48
251.142	0.48
251.515	0.51
251.888	0.53
252.262	0.55
252.635	0.53
253.008	0.54
253.381	0.56
253.754	0.61
254.127	0.64
254.5	0.62
254.873	0.61
255.246	0.58
255.619	0.54
255.992	0.53
256.364	0.49
256.737	0.49
257.11	0.54
257.483	0.51
257.855	0.48
258.228	0.48
258.6	0.5
258.973	0.53
259.345	0.54
259.718	0.54
260.09	0.54
260.462	0.51
260.834	0.48
261.207	0.41
261.579	0.43
261.951	0.46
262.323	0.46
262.695	0.43
263.067	0.39
263.439	0.35
263.811	0.3
264.183	0.3
264.555	0.35
264.927	0.37
265.298	0.4
265.67	0.44
266.042	0.44
266.413	0.38
266.785	0.41
267.156	0.39
267.528	0.34
267.899	0.32
268.271	0.29
268.642	0.38
269.013	0.37
269.385	0.39
269.756	0.36
270.127	0.34
270.498	0.36
270.87	0.35
271.241	0.33
271.612	0.29
271.983	0.27
272.354	0.27
272.724	0.28
273.095	0.35
273.466	0.37
273.837	0.29
274.208	0.29
274.578	0.22
274.949	0.2
275.32	0.17
275.69	0.17
276.061	0.13
276.431	0.14
276.802	0.16
277.172	0.16
277.542	0.15
277.913	0.08
278.283	0.07
278.653	0.04
279.023	0.05
279.394	0.04
279.764	0.1
280.134	0.07
280.504	0.09
280.874	0.14
281.244	0.15
281.614	0.14
281.983	0.17
282.353	0.15
282.723	0.13
283.093	0.19
283.462	0.17
283.832	0.18
284.202	0.16
284.571	0.19
284.941	0.19
285.31	0.12
285.68	0.09
286.049	0.13
286.418	0.12
286.788	0.18
287.157	0.22
287.526	0.22
287.895	0.23
288.264	0.25
288.633	0.32
289.002	0.28
289.371	0.25
289.74	0.2
290.109	0.16
290.478	0.15
290.847	0.16
291.216	0.14
291.585	0.12
291.953	0.12
292.322	0.11
292.691	0.12
293.059	0.11
293.428	0.09
293.796	0.11
294.165	0.1
294.533	0.12
294.901	0.22
295.27	0.2
295.638	0.2
296.006	0.13
296.374	0.13
296.743	0.09
297.111	0.09
297.479	0.03
297.847	-0.02
298.215	-0.03
298.583	-0.02
298.95	0.03
299.318	0.01
299.686	0.04
300.054	0.05
300.422	0.05
300.789	0.02
301.157	0.05
301.525	0.09
301.892	0.08
302.26	0.1
302.627	0.13
302.994	0.11
303.362	0.11
303.729	0.13
304.097	0.07
304.464	0.04
304.831	0.05
305.198	0.1
305.565	0.03
305.932	0.09
306.299	0.06
306.666	0.1
307.033	0.12
307.4	0.13
307.767	0.12
308.134	0.11
308.501	0.14
308.867	0.14
309.234	0.14
309.601	0.11
309.967	0.16
310.334	0.14
310.701	0.12
311.067	0.11
311.433	0.15
311.8	0.14
312.166	0.11
312.533	0.14
312.899	0.19
313.265	0.19
313.631	0.23
313.997	0.18
314.363	0.16
314.729	0.14
315.096	0.18
315.461	0.21
315.827	0.2
316.193	0.27
316.559	0.24
316.925	0.24
317.291	0.22
317.656	0.18
318.022	0.13
318.388	0.09
318.753	0.1
319.119	0.09
319.484	0.08
319.85	0.07
320.215	0.06
320.581	0.02
320.946	-0.03
321.311	-0
321.676	0
322.042	-0.02
322.407	-0.01
322.772	-0.04
323.137	-0.08
323.502	-0.07
323.867	-0.09
324.232	-0.15
324.597	-0.2
324.962	-0.17
325.327	-0.2
325.691	-0.17
326.056	-0.14
326.421	-0.1
326.785	-0.07
327.15	-0.02
327.514	-0.01
327.879	0.05
328.243	-0.03
328.608	-0.03
328.972	-0.05
329.337	-0.03
329.701	-0
330.065	0.07
330.429	0.01
330.794	0
331.158	0.04
331.522	0.02
331.886	0.01
332.25	0.1
332.614	0.1
332.978	0.1
333.342	0.12
333.705	0.18
334.069	0.2
334.433	0.17
334.797	0.07
335.16	0.02
335.524	-0.04
335.887	-0.02
336.251	-0.07
336.614	-0.1
336.978	-0.12
337.341	-0.01
337.705	0.03
338.068	0.1
338.431	0.08
338.794	0.06
339.158	0.01
339.521	0.05
339.884	0.01
340.247	-0.1
340.61	-0.07
340.973	-0.06
341.336	-0.07
341.699	-0.09
342.062	-0.05
342.424	-0.09
342.787	-0.14
343.15	-0.19
343.512	-0.2
343.875	-0.15
344.238	-0.11
344.6	-0.12
344.963	-0.18
345.325	-0.14
345.688	-0.07
346.05	-0.09
346.412	-0.14
346.775	-0.24
347.137	-0.21
347.499	-0.19
347.861	-0.19
348.223	-0.13
348.585	-0.12
348.947	-0.09
349.309	-0.06
349.671	-0.11
350.033	-0.17
350.395	-0.19
350.757	-0.13
351.118	-0.11
351.48	-0.03
351.842	-0.03
352.203	-0.01
352.565	-0.07
352.927	-0.01
353.288	0.04
353.65	0.15
354.011	0.15
354.372	0.18
354.734	0.18
355.095	0.09
355.456	0.08
355.817	0.16
356.179	0.07
356.54	0.07
356.901	0.1
357.262	0.07
357.623	0.08
357.984	0.07
358.345	0.09
358.705	0.07
359.066	0.06
359.427	0.15
359.788	0.09
360.148	0.04
360.509	0.01
360.87	0.06
361.23	-0.05
361.591	0.02
361.951	-0.02
362.312	-0.15
362.672	-0.27
363.032	-0.25
363.393	-0.33
363.753	-0.38
364.113	-0.36
364.473	-0.32
364.833	-0.35
365.193	-0.28
365.553	-0.36
365.913	-0.31
366.273	-0.35
366.633	-0.42
366.993	-0.47
367.353	-0.6
367.713	-0.5
368.072	-0.46
368.432	-0.49
368.792	-0.48
369.151	-0.44
369.511	-0.48
369.87	-0.53
370.23	-0.36
370.589	-0.38
370.949	-0.35
371.308	-0.26
371.667	-0.25
372.027	-0.25
372.386	-0.19
372.745	-0.18
373.104	-0.1
373.463	-0.16
373.822	-0.13
374.181	-0.18
374.54	-0.12
374.899	-0.23
375.258	-0.2
375.617	-0.15
375.975	-0.08
376.334	0.08
376.693	0.01
377.052	-0.07
377.41	-0.11
377.769	-0.1
378.127	-0.09
378.486	-0.12
378.844	-0.13
379.202	-0.16
379.561	-0.17
379.919	-0.21
380.277	-0.23
380.636	-0.18
380.994	-0.09
381.352	-0.12
381.71	-0.13
382.068	-0.08
382.426	-0.01
382.784	-0.01
383.142	0.03
383.5	0
383.857	0.07
384.215	0.09
384.573	0.05
384.931	0.03
385.288	-0.04
385.646	-0.09
386.003	-0.02
386.361	-0.01
386.718	-0
387.076	-0.03
387.433	-0.01
387.791	0.01
388.148	0
388.505	0.03
388.862	-0.01
389.22	-0.03
389.577	-0.1
389.934	-0.14
390.291	-0.11
390.648	-0.15
391.005	-0.18
391.362	-0.32
391.718	-0.35
392.075	-0.36
392.432	-0.36
392.789	-0.39
393.145	-0.42
393.502	-0.34
393.859	-0.4
394.215	-0.35
394.572	-0.28
394.928	-0.25
395.285	-0.27
395.641	-0.32
395.997	-0.33
396.354	-0.23
396.71	-0.24
397.066	-0.29
397.422	-0.3
397.778	-0.28
398.134	-0.3
398.491	-0.21
398.846	-0.26
399.202	-0.3
399.558	-0.29
399.914	-0.35
400.27	-0.25
400.626	-0.29
400.981	-0.29
401.337	-0.36
401.693	-0.43
402.048	-0.43
402.404	-0.44
402.759	-0.49
403.115	-0.53
403.47	-0.52
403.826	-0.52
404.181	-0.54
404.536	-0.52
404.892	-0.53
405.247	-0.71
405.602	-0.7
405.957	-0.68
406.312	-0.7
406.667	-0.65
407.022	-0.6
407.377	-0.67
407.732	-0.69
408.087	-0.73
408.442	-0.65
408.796	-0.59
409.151	-0.58
409.506	-0.52
409.86	-0.63
410.215	-0.55
410.57	-0.48
410.924	-0.48
411.279	-0.48
411.633	-0.41
411.987	-0.4
412.342	-0.42
412.696	-0.37
413.05	-0.31
413.404	-0.23
413.758	-0.15
414.113	-0.04
414.467	-0.03
414.821	-0.01
415.175	0.09
415.529	0.06
415.882	0.04
416.236	0.11
416.59	0.21
416.944	0.32
417.298	0.36
417.651	0.3
418.005	0.32
418.358	0.32
418.712	0.47
419.065	0.46
419.419	0.42
419.772	0.5
420.126	0.43
420.479	0.55
420.832	0.6
421.185	0.65
421.539	0.65
421.892	0.57
422.245	0.47
422.598	0.45
422.951	0.42
423.304	0.39
423.657	0.3
424.01	0.28
424.363	0.28
424.715	0.33
425.068	0.29
425.421	0.26
425.773	0.27
426.126	0.26
426.479	0.28
426.831	0.21
427.184	0.27
427.536	0.2
427.889	0.25
428.241	0.38
428.593	0.34
428.945	0.41
429.298	0.39
429.65	0.4
430.002	0.37
430.354	0.33
430.706	0.41
431.058	0.48
431.41	0.53
431.762	0.63
432.114	0.67
432.466	0.83
432.817	0.85
433.169	0.88
433.521	1.02
433.872	1.02
434.224	0.98
434.576	0.99
434.927	0.94
435.279	1.02
435.63	1.06
435.981	1.05
436.333	1.13
436.684	1.12
437.035	1.05
437.387	1.04
437.738	1.06
438.089	0.95
438.44	0.99
438.791	0.97
439.142	0.94
439.493	0.94
439.844	0.91
440.195	0.86
440.545	0.91
440.896	1.02
441.247	0.95
441.598	0.88
441.948	0.95
442.299	0.85
442.649	0.83
443	0.81
443.35	0.76
443.701	0.76
444.051	0.71
444.401	0.79
444.752	0.77
445.102	0.73
445.452	0.71
445.802	0.64
446.152	0.7
446.502	0.68
446.852	0.75
447.202	0.67
447.552	0.73
447.902	0.78
448.252	0.81
448.602	0.99
448.952	1.02
449.301	0.89
449.651	0.71
450.001	0.72
450.35	0.78
450.7	0.79
451.049	0.8
451.399	0.88
451.748	1
452.097	1.11
452.447	1.15
452.796	1.12
453.145	1.09
453.494	1.11
453.843	1.17
454.193	1.32
454.542	1.41
454.891	1.51
455.239	1.51
455.588	1.56
455.937	1.57
456.286	1.53
456.635	1.57
456.984	1.53
457.332	1.32
457.681	1.33
458.03	1.39
458.378	1.51
458.727	1.58
459.075	1.62
459.423	1.62
459.772	1.68
460.12	1.77
460.468	1.85
460.817	1.87
461.165	1.92
461.513	1.93
461.861	1.94
462.209	1.9
462.557	1.82
462.905	1.73
463.253	1.64
463.601	1.51
463.949	1.62
464.297	1.6
464.644	1.67
464.992	1.75
465.34	1.74
465.687	1.76
466.035	1.82
466.383	1.82
466.73	1.9
467.078	1.9
467.425	1.85
467.772	1.81
468.12	1.75
468.467	1.62
468.814	1.49
469.161	1.45
469.508	1.31
469.856	1.27
470.203	1.27
470.55	1.25
470.897	1.23
471.243	1.19
471.59	1.1
471.937	1.13
472.284	1.17
472.631	1.09
472.977	1.06
473.324	1.11
473.671	1.12
474.017	1.05
474.364	1.05
474.71	1.01
475.057	1.02
475.403	0.92
475.749	1.03
476.096	1.01
476.442	1.02
476.788	1.03
477.134	1.04
477.48	1.09
477.826	1.03
478.172	1.08
478.518	1.09
478.864	1.08
479.21	1.05
479.556	1.09
479.902	1.23
480.248	1.36
480.593	1.38
480.939	1.35
481.285	1.32
481.63	1.34
481.976	1.31
482.321	1.39
482.667	1.54
483.012	1.61
483.357	1.77
483.703	1.83
484.048	2.03
484.393	2.04
484.738	2.19
485.084	2.29
485.429	2.42
485.774	2.59
486.119	2.73
486.464	2.97
486.808	3.19
487.153	3.43
487.498	3.72
487.843	4.06
488.188	4.32
488.532	4.57
488.877	4.88
489.222	5.38
489.566	5.86
489.911	6.41
490.255	7.03
490.6	7.61
490.944	8.07
491.288	8.64
491.633	9.28
491.977	9.86
492.321	10.49
492.665	11.03
493.009	11.74
493.353	12.47
493.697	13.3
494.041	14.15
494.385	15.02
494.729	15.86
495.073	16.68
495.417	17.54
495.76	18.4
496.104	19.32
496.448	20.15
496.791	21.15
497.135	22.14
497.479	23.12
497.822	24
498.165	24.93
498.509	26.02
498.852	26.93
499.196	27.91
499.539	28.99
499.882	29.79
500.225	30.74
500.568	31.68
500.911	32.65
501.254	33.7
501.597	34.66
501.94	35.49
502.283	36.43
502.626	37.29
502.969	38.13
503.312	38.95
503.654	39.86
503.997	40.78
504.34	41.6
504.682	42.45
505.025	43.31
505.367	44.18
505.71	45.03
506.052	45.85
506.395	46.69
506.737	47.43
507.079	47.95
507.421	48.73
507.764	49.54
508.106	50.09
508.448	50.86
508.79	51.45
509.132	52.03
509.474	52.66
509.816	53.19
510.158	53.81
510.499	54.43
510.841	54.85
511.183	55.38
511.525	55.87
511.866	56.38
512.208	56.74
512.549	57.15
512.891	57.6
513.232	58.05
513.574	58.63
513.915	58.95
514.256	59.34
514.598	59.73
514.939	60.1
515.28	60.51
515.621	61.06
515.962	61.45
516.303	61.77
516.644	62.41
516.985	62.89
517.326	63.23
517.667	63.66
518.008	63.99
518.349	64.33
518.69	64.66
519.03	64.94
519.371	65.33
519.712	65.57
520.052	65.81
520.393	66.1
520.733	66.59
521.074	67.03
521.414	67.42
521.754	67.9
522.095	68.07
522.435	68.4
522.775	68.68
523.115	69.26
523.455	69.67
523.795	69.91
524.135	70.19
524.475	70.53
524.815	70.81
525.155	70.84
525.495	70.97
525.835	71.33
526.175	71.42
526.514	71.57
526.854	71.64
527.194	71.71
527.533	71.76
527.873	71.83
528.212	71.97
528.552	72.1
528.891	72.36
529.23	72.32
529.57	72.45
529.909	72.53
530.248	72.44
530.587	72.49
530.927	72.44
531.266	72.59
531.605	72.6
531.944	72.62
532.283	72.69
532.621	72.88
532.96	72.9
533.299	72.76
533.638	73.07
533.977	73.08
534.315	73.16
534.654	73.43
534.992	73.38
535.331	73.52
535.67	73.59
536.008	73.75
536.346	73.89
536.685	74.02
537.023	74.33
537.361	74.49
537.7	74.7
538.038	74.66
538.376	74.76
538.714	74.96
539.052	75.13
539.39	75.33
539.728	75.53
540.066	75.45
540.404	75.5
540.741	75.68
541.079	75.52
541.417	75.66
541.755	76.03
542.092	76
542.43	76.24
542.767	76.32
543.105	76.2
543.442	76.49
543.78	76.65
544.117	76.8
544.454	76.99
544.792	77.14
545.129	77.18
545.466	76.99
545.803	77
546.14	77.04
546.477	77.24
546.814	77.42
547.151	77.52
547.488	77.69
547.825	77.78
548.162	77.67
548.499	77.86
548.835	77.82
549.172	77.73
549.509	77.91
549.845	77.94
550.182	77.81
550.518	77.69
550.855	77.64
551.191	77.57
551.528	77.76
551.864	77.8
552.2	77.75
552.537	77.77
552.873	77.95
553.209	78.06
553.545	78.06
553.881	78.43
554.217	78.5
554.553	78.4
554.889	78.22
555.225	78.24
555.561	78.19
555.896	78.03
556.232	78.08
556.568	78.03
556.903	77.79
557.239	77.89
557.575	78.01
557.91	78.04
558.245	77.98
558.581	78.18
558.916	78.32
559.252	78.4
559.587	78.5
559.922	78.64
560.257	78.69
560.592	78.68
560.928	78.77
561.263	78.83
561.598	78.72
561.933	78.9
562.267	78.71
562.602	78.68
562.937	78.85
563.272	79.14
563.607	78.94
563.941	78.84
564.276	79.19
564.611	79.26
564.945	79.64
565.28	79.88
565.614	80.05
565.949	80.31
566.283	80.33
566.617	80.34
566.951	80.34
567.286	80.42
567.62	80.43
567.954	80.65
568.288	80.43
568.622	80.33
568.956	80.45
569.29	80.45
569.624	80.4
569.958	80.44
570.292	80.43
570.626	80.59
570.959	80.62
571.293	80.8
571.627	80.82
571.96	80.96
572.294	80.95
572.627	80.9
572.961	80.88
573.294	80.77
573.627	80.72
573.961	80.79
574.294	80.81
574.627	80.77
574.961	80.9
575.294	81.07
575.627	81.13
575.96	81.1
576.293	80.95
576.626	81.15
576.959	81.26
577.292	81.24
577.624	81.28
577.957	81.25
578.29	81.25
578.623	81.2
578.955	81.15
579.288	81.18
579.62	81.09
579.953	80.93
580.285	80.94
580.618	81.05
580.95	81.06
581.282	81.12
581.615	81.15
581.947	81.33
582.279	81.21
582.611	81.1
582.943	81.26
583.275	81.19
583.607	80.95
583.939	80.85
584.271	80.93
584.603	81.04
584.935	80.96
585.267	81.01
585.598	81.11
585.93	81.27
586.262	81.23
586.593	81.36
586.925	81.54
587.256	81.56
587.588	81.55
587.919	81.49
588.25	81.8
588.582	81.67
588.913	81.75
589.244	81.81
589.575	81.81
589.907	81.81
590.238	81.67
590.569	81.67
590.9	81.8
591.231	81.63
591.562	81.56
591.892	81.7
592.223	81.72
592.554	81.77
592.885	81.7
593.215	81.52
593.546	81.36
593.877	81.25
594.207	81
594.538	81.23
594.868	81.22
595.198	81.24
595.529	81.29
595.859	81.31
596.189	81.41
596.52	81.27
596.85	81.37
597.18	81.38
597.51	81.35
597.84	81.41
598.17	81.4
598.5	81.42
598.83	81.45
599.16	81.33
599.489	81.44
599.819	81.47
600.149	81.27
600.479	81.36
600.808	81.27
601.138	81.21
601.467	81.38
601.797	81.43
602.126	81.44
602.456	81.49
602.785	81.28
603.114	81.27
603.443	81.08
603.773	80.99
604.102	80.96
604.431	81.07
604.76	81
605.089	80.89
605.418	80.78
605.747	80.85
606.076	80.77
606.405	80.61
606.733	80.63
607.062	80.62
607.391	80.62
607.72	80.48
608.048	80.56
608.377	80.67
608.705	80.56
609.034	80.61
609.362	80.68
609.69	80.77
610.019	80.82
610.347	80.71
610.675	80.71
611.004	80.49
611.332	80.41
611.66	80.3
611.988	80.2
612.316	80.31
612.644	80.24
612.972	80.2
613.3	80.3
613.627	80.2
613.955	80.13
614.283	80.02
614.611	80.08
614.938	79.93
615.266	79.91
615.593	79.86
615.921	80.02
616.248	79.93
616.576	80.06
616.903	80.22
617.23	80.29
617.558	80.46
617.885	80.3
618.212	80.21
618.539	80.36
618.866	80.48
619.193	80.67
619.52	80.51
619.847	80.7
620.174	81.04
620.501	80.78
620.828	80.49
621.155	80.6
621.481	80.75
621.808	80.81
622.135	80.39
622.461	80.73
622.788	80.71
623.114	80.75
623.441	81.06
623.767	81.08
624.093	81.22
624.42	81.26
624.746	81.5
625.072	81.32
625.398	81.04
625.725	81.07
626.051	81.36
626.377	81.57
626.703	81.54
627.029	81.54
627.354	81.65
627.68	81.92
628.006	81.74
628.332	81.62
628.658	81.71
628.983	81.81
629.309	82.07
629.634	81.53
629.96	81.72
630.285	81.86
630.611	81.57
630.936	81.89
631.262	81.61
631.587	81.09
631.912	81.38
632.237	81.23
632.562	81.4
632.887	81.35
633.213	81.19
633.538	81.23
633.863	80.76
634.187	80.55
634.512	80.65
634.837	80.81
635.162	80.61
635.487	80.22
635.811	80.24
636.136	80.37
636.461	80.12
636.785	80.28
637.11	80.39
637.434	80.5
637.758	80.8
638.083	81.21
638.407	81.7
638.731	81.84
639.056	82.15
639.38	82.36
639.704	82.47
640.028	82.09
640.352	81.52
640.676	81.65
641	81.25
641.324	81.28
641.648	81.42
641.972	81.36
642.295	80.66
642.619	80.26
642.943	80.4
643.266	80.34
643.59	80.45
643.913	80.35
644.237	80.36
644.56	79.95
644.884	79.94
645.207	79.8
645.53	79.81
645.854	80.07
646.177	79.18
646.5	79.34
646.823	78.85
647.146	78.91
647.469	79.14
647.792	79.07
648.115	79.32
648.438	79.72
648.761	80.62
649.084	81.08
649.406	82.02
649.729	81.56
650.052	81.56
650.374	81.84
650.697	81.88
651.019	81.95
651.342	81.97
651.664	82.27
651.987	82.15
652.309	82.31
652.631	82.75
652.953	82.72
653.276	82.7
653.598	82.61
653.92	82.69
654.242	82.72
654.564	82.59
654.886	82.94
655.208	82.75
655.53	82.73
655.851	82.63
656.173	82.79
656.495	82.81
656.816	82.49
657.138	82.49
657.46	81.52
657.781	82.26
658.103	82.62
658.424	83
658.746	82.65
659.067	82.21
659.388	82.68
659.709	82.2
660.031	82.3
660.352	81.75
660.673	80.8
660.994	80.57
