Data from T1_Reflection__30__20-33-48-426.txt Node

Date: Wed Jun 02 20:33:48 CEST 2021
User: mabdelazizm
Spectrometer: FLMS18565
Trigger mode: 0
Integration Time (sec): 2.000000E0
Scans to average: 1
Electric dark correction enabled: true
Nonlinearity correction enabled: false
Boxcar width: 12
XAxis mode: Wavelengths
Number of Pixels in Spectrum: 2048
>>>>>Begin Spectral Data<<<<<
179.071	53.9
179.452	47.11
179.833	42.89
180.214	18.18
180.595	20.25
180.977	37.76
181.358	52.7
181.739	116.67
182.12	96.71
182.501	83.52
182.882	155.78
183.262	238
183.643	-356.1
184.024	-43.83
184.405	-18.15
184.786	-8.57
185.166	-6.66
185.547	-14.7
185.927	-16.65
186.308	-5.99
186.689	-6.1
187.069	-4.38
187.449	3.29
187.83	3.51
188.21	5.65
188.59	5.66
188.971	4.02
189.351	1.11
189.731	-1.24
190.111	-0.48
190.491	0.03
190.871	2.3
191.251	4.6
191.631	4.9
192.011	4.88
192.391	7.02
192.771	9.75
193.151	9.46
193.531	9.01
193.91	8.16
194.29	7.93
194.67	8.82
195.049	9.69
195.429	8.73
195.808	7.99
196.188	6.72
196.567	5.63
196.946	4.9
197.326	4.34
197.705	3.29
198.084	2.47
198.464	3.12
198.843	3.6
199.222	4.49
199.601	4.26
199.98	5.23
200.359	5.3
200.738	5.47
201.117	4.9
201.496	4.22
201.875	4.16
202.254	2.8
202.632	2.29
203.011	1.65
203.39	1.84
203.768	1
204.147	0.78
204.525	0.66
204.904	1.79
205.282	3.54
205.661	3.3
206.039	3.33
206.418	2.75
206.796	3.11
207.174	3.39
207.552	3.32
207.931	2.64
208.309	3
208.687	2.31
209.065	3.05
209.443	1.94
209.821	1.01
210.199	0.36
210.577	-0.82
210.954	-0.54
211.332	-0.92
211.71	-0.17
212.088	0.28
212.465	0.26
212.843	0.71
213.221	1.18
213.598	1.28
213.976	1.43
214.353	1.86
214.731	0.75
215.108	1.23
215.485	0.86
215.863	0.82
216.24	0.09
216.617	0.24
216.994	0.53
217.371	-0.1
217.749	-0.25
218.126	-0.06
218.503	-0.58
218.88	0.23
219.256	0.47
219.633	0.89
220.01	1.09
220.387	0.53
220.764	0.46
221.14	0.19
221.517	0.26
221.894	0.11
222.27	-0.01
222.647	-0.05
223.023	-0.14
223.4	-0.08
223.776	-0.37
224.153	-0.17
224.529	-0.58
224.905	0.18
225.282	0.38
225.658	0.63
226.034	0.34
226.41	0.43
226.786	0.97
227.162	1.06
227.538	0.94
227.914	1.04
228.29	0.75
228.666	0.63
229.042	0.4
229.418	0.43
229.793	0.7
230.169	0.82
230.545	0.69
230.92	0.78
231.296	0.6
231.672	0.63
232.047	0.65
232.422	0.69
232.798	0.53
233.173	0.52
233.549	0.36
233.924	0.39
234.299	0.15
234.674	0.08
235.05	0.1
235.425	0.03
235.8	0.08
236.175	0.02
236.55	-0.01
236.925	0.01
237.3	-0.1
237.675	-0.12
238.049	-0.12
238.424	-0.06
238.799	0.02
239.174	-0.03
239.548	-0.05
239.923	-0.08
240.297	-0.12
240.672	-0.07
241.046	-0.13
241.421	-0.11
241.795	-0.19
242.17	-0.15
242.544	-0.18
242.918	-0.22
243.293	-0.18
243.667	-0.17
244.041	-0.13
244.415	-0.19
244.789	-0.1
245.163	-0.21
245.537	-0.2
245.911	-0.26
246.285	-0.28
246.659	-0.18
247.033	-0.19
247.406	-0.18
247.78	-0.24
248.154	-0.26
248.528	-0.25
248.901	-0.23
249.275	-0.17
249.648	-0.31
250.022	-0.29
250.395	-0.34
250.769	-0.33
251.142	-0.31
251.515	-0.3
251.888	-0.3
252.262	-0.28
252.635	-0.28
253.008	-0.27
253.381	-0.34
253.754	-0.32
254.127	-0.33
254.5	-0.34
254.873	-0.38
255.246	-0.31
255.619	-0.32
255.992	-0.41
256.364	-0.39
256.737	-0.39
257.11	-0.31
257.483	-0.33
257.855	-0.33
258.228	-0.35
258.6	-0.32
258.973	-0.2
259.345	-0.24
259.718	-0.19
260.09	-0.22
260.462	-0.24
260.834	-0.28
261.207	-0.32
261.579	-0.3
261.951	-0.26
262.323	-0.26
262.695	-0.27
263.067	-0.26
263.439	-0.32
263.811	-0.32
264.183	-0.3
264.555	-0.29
264.927	-0.31
265.298	-0.28
265.67	-0.28
266.042	-0.28
266.413	-0.36
266.785	-0.35
267.156	-0.42
267.528	-0.5
267.899	-0.54
268.271	-0.61
268.642	-0.55
269.013	-0.55
269.385	-0.53
269.756	-0.48
270.127	-0.49
270.498	-0.43
270.87	-0.41
271.241	-0.47
271.612	-0.5
271.983	-0.46
272.354	-0.47
272.724	-0.42
273.095	-0.39
273.466	-0.38
273.837	-0.41
274.208	-0.38
274.578	-0.38
274.949	-0.34
275.32	-0.36
275.69	-0.33
276.061	-0.36
276.431	-0.35
276.802	-0.29
277.172	-0.31
277.542	-0.3
277.913	-0.31
278.283	-0.31
278.653	-0.32
279.023	-0.38
279.394	-0.34
279.764	-0.33
280.134	-0.35
280.504	-0.34
280.874	-0.29
281.244	-0.32
281.614	-0.33
281.983	-0.3
282.353	-0.28
282.723	-0.33
283.093	-0.35
283.462	-0.39
283.832	-0.4
284.202	-0.52
284.571	-0.53
284.941	-0.48
285.31	-0.51
285.68	-0.46
286.049	-0.46
286.418	-0.48
286.788	-0.4
287.157	-0.4
287.526	-0.39
287.895	-0.44
288.264	-0.37
288.633	-0.37
289.002	-0.38
289.371	-0.36
289.74	-0.4
290.109	-0.47
290.478	-0.45
290.847	-0.46
291.216	-0.43
291.585	-0.48
291.953	-0.48
292.322	-0.5
292.691	-0.49
293.059	-0.5
293.428	-0.42
293.796	-0.41
294.165	-0.46
294.533	-0.43
294.901	-0.39
295.27	-0.41
295.638	-0.34
296.006	-0.44
296.374	-0.43
296.743	-0.46
297.111	-0.42
297.479	-0.51
297.847	-0.5
298.215	-0.48
298.583	-0.53
298.95	-0.47
299.318	-0.47
299.686	-0.45
300.054	-0.39
300.422	-0.46
300.789	-0.49
301.157	-0.47
301.525	-0.41
301.892	-0.4
302.26	-0.38
302.627	-0.39
302.994	-0.39
303.362	-0.38
303.729	-0.36
304.097	-0.37
304.464	-0.38
304.831	-0.37
305.198	-0.29
305.565	-0.31
305.932	-0.27
306.299	-0.29
306.666	-0.28
307.033	-0.31
307.4	-0.33
307.767	-0.35
308.134	-0.32
308.501	-0.34
308.867	-0.35
309.234	-0.41
309.601	-0.41
309.967	-0.3
310.334	-0.31
310.701	-0.29
311.067	-0.27
311.433	-0.24
311.8	-0.22
312.166	-0.2
312.533	-0.18
312.899	-0.16
313.265	-0.2
313.631	-0.19
313.997	-0.28
314.363	-0.31
314.729	-0.36
315.096	-0.33
315.461	-0.3
315.827	-0.3
316.193	-0.19
316.559	-0.16
316.925	-0.14
317.291	-0.19
317.656	-0.17
318.022	-0.18
318.388	-0.2
318.753	-0.22
319.119	-0.22
319.484	-0.2
319.85	-0.26
320.215	-0.29
320.581	-0.36
320.946	-0.43
321.311	-0.41
321.676	-0.44
322.042	-0.41
322.407	-0.46
322.772	-0.46
323.137	-0.45
323.502	-0.46
323.867	-0.46
324.232	-0.5
324.597	-0.47
324.962	-0.39
325.327	-0.49
325.691	-0.51
326.056	-0.51
326.421	-0.42
326.785	-0.38
327.15	-0.38
327.514	-0.34
327.879	-0.27
328.243	-0.35
328.608	-0.32
328.972	-0.33
329.337	-0.29
329.701	-0.28
330.065	-0.23
330.429	-0.31
330.794	-0.31
331.158	-0.29
331.522	-0.24
331.886	-0.25
332.25	-0.2
332.614	-0.26
332.978	-0.25
333.342	-0.28
333.705	-0.28
334.069	-0.39
334.433	-0.38
334.797	-0.39
335.16	-0.38
335.524	-0.45
335.887	-0.44
336.251	-0.39
336.614	-0.44
336.978	-0.51
337.341	-0.44
337.705	-0.48
338.068	-0.41
338.431	-0.45
338.794	-0.46
339.158	-0.48
339.521	-0.46
339.884	-0.53
340.247	-0.66
340.61	-0.71
340.973	-0.67
341.336	-0.71
341.699	-0.66
342.062	-0.69
342.424	-0.66
342.787	-0.73
343.15	-0.66
343.512	-0.69
343.875	-0.69
344.238	-0.7
344.6	-0.75
344.963	-0.81
345.325	-0.81
345.688	-0.78
346.05	-0.75
346.412	-0.79
346.775	-0.85
347.137	-0.9
347.499	-0.84
347.861	-0.82
348.223	-0.81
348.585	-0.82
348.947	-0.76
349.309	-0.67
349.671	-0.62
350.033	-0.62
350.395	-0.61
350.757	-0.62
351.118	-0.52
351.48	-0.45
351.842	-0.4
352.203	-0.41
352.565	-0.41
352.927	-0.44
353.288	-0.45
353.65	-0.45
354.011	-0.45
354.372	-0.44
354.734	-0.42
355.095	-0.45
355.456	-0.48
355.817	-0.46
356.179	-0.44
356.54	-0.49
356.901	-0.49
357.262	-0.46
357.623	-0.43
357.984	-0.41
358.345	-0.46
358.705	-0.51
359.066	-0.66
359.427	-0.58
359.788	-0.58
360.148	-0.67
360.509	-0.76
360.87	-0.77
361.23	-0.88
361.591	-0.84
361.951	-0.86
362.312	-0.88
362.672	-0.92
363.032	-0.95
363.393	-0.99
363.753	-1
364.113	-1.03
364.473	-0.93
364.833	-0.94
365.193	-0.94
365.553	-0.99
365.913	-1.01
366.273	-1.05
366.633	-1.05
366.993	-1.15
367.353	-1.24
367.713	-1.22
368.072	-1.1
368.432	-1.11
368.792	-1.1
369.151	-1.02
369.511	-1.03
369.87	-1.08
370.23	-1.03
370.589	-1.02
370.949	-1
371.308	-0.96
371.667	-0.93
372.027	-0.84
372.386	-0.86
372.745	-0.84
373.104	-0.81
373.463	-0.91
373.822	-0.91
374.181	-0.92
374.54	-0.9
374.899	-0.91
375.258	-0.91
375.617	-0.87
375.975	-0.78
376.334	-0.64
376.693	-0.66
377.052	-0.71
377.41	-0.79
377.769	-0.82
378.127	-0.85
378.486	-0.86
378.844	-0.82
379.202	-0.76
379.561	-0.85
379.919	-0.87
380.277	-0.88
380.636	-0.89
380.994	-0.92
381.352	-0.88
381.71	-0.93
382.068	-0.93
382.426	-0.85
382.784	-0.8
383.142	-0.78
383.5	-0.79
383.857	-0.72
384.215	-0.79
384.573	-0.84
384.931	-0.89
385.288	-0.91
385.646	-1.01
386.003	-1.04
386.361	-0.99
386.718	-0.97
387.076	-1
387.433	-0.99
387.791	-1.03
388.148	-1.09
388.505	-1
388.862	-0.93
389.22	-0.85
389.577	-0.86
389.934	-0.84
390.291	-0.92
390.648	-0.97
391.005	-0.95
391.362	-1.07
391.718	-1.16
392.075	-1.15
392.432	-1.11
392.789	-1.14
393.145	-1.05
393.502	-1
393.859	-1.03
394.215	-1.08
394.572	-0.96
394.928	-0.93
395.285	-1.03
395.641	-1
395.997	-1.03
396.354	-0.94
396.71	-0.89
397.066	-0.86
397.422	-0.94
397.778	-1
398.134	-1.1
398.491	-1.07
398.846	-1.14
399.202	-1.12
399.558	-1.04
399.914	-1.04
400.27	-1
400.626	-1.02
400.981	-1.05
401.337	-1.08
401.693	-1.08
402.048	-1.09
402.404	-1.04
402.759	-1.02
403.115	-0.98
403.47	-1.03
403.826	-0.98
404.181	-0.9
404.536	-0.88
404.892	-0.79
405.247	-0.89
405.602	-0.89
405.957	-0.92
406.312	-0.84
406.667	-0.8
407.022	-0.77
407.377	-0.74
407.732	-0.74
408.087	-0.75
408.442	-0.72
408.796	-0.75
409.151	-0.66
409.506	-0.64
409.86	-0.67
410.215	-0.6
410.57	-0.68
410.924	-0.73
411.279	-0.89
411.633	-0.84
411.987	-0.83
412.342	-0.77
412.696	-0.83
413.05	-0.8
413.404	-0.83
413.758	-0.79
414.113	-0.8
414.467	-0.72
414.821	-0.65
415.175	-0.62
415.529	-0.52
415.882	-0.53
416.236	-0.5
416.59	-0.38
416.944	-0.3
417.298	-0.23
417.651	-0.22
418.005	-0.16
418.358	-0.01
418.712	0.15
419.065	0.17
419.419	0.22
419.772	0.29
420.126	0.4
420.479	0.59
420.832	0.66
421.185	0.75
421.539	0.86
421.892	0.85
422.245	0.94
422.598	1.01
422.951	1.07
423.304	1.08
423.657	1.13
424.01	1.24
424.363	1.29
424.715	1.47
425.068	1.6
425.421	1.75
425.773	1.91
426.126	2.04
426.479	2.15
426.831	2.17
427.184	2.29
427.536	2.32
427.889	2.52
428.241	2.83
428.593	3.03
428.945	3.24
429.298	3.3
429.65	3.51
430.002	3.68
430.354	3.85
430.706	4.15
431.058	4.25
431.41	4.44
431.762	4.73
432.114	4.86
432.466	5.13
432.817	5.3
433.169	5.45
433.521	5.7
433.872	5.82
434.224	5.89
434.576	6.02
434.927	6.13
435.279	6.33
435.63	6.54
435.981	6.78
436.333	6.98
436.684	7.07
437.035	7.11
437.387	7.24
437.738	7.31
438.089	7.38
438.44	7.49
438.791	7.63
439.142	7.77
439.493	7.85
439.844	7.9
440.195	8.03
440.545	8.15
440.896	8.33
441.247	8.36
441.598	8.37
441.948	8.54
442.299	8.54
442.649	8.66
443	8.75
443.35	8.83
443.701	8.85
444.051	9.03
444.401	9.14
444.752	9.08
445.102	9.13
445.452	9.2
445.802	9.21
446.152	9.3
446.502	9.5
446.852	9.53
447.202	9.52
447.552	9.67
447.902	9.73
448.252	9.8
448.602	11.11
448.952	11.2
449.301	11.28
449.651	11.23
450.001	11.37
450.35	11.55
450.7	11.61
451.049	11.79
451.399	11.92
451.748	12.07
452.097	12.21
452.447	12.37
452.796	12.34
453.145	12.47
453.494	12.55
453.843	12.74
454.193	13.04
454.542	13.36
454.891	13.64
455.239	13.77
455.588	13.99
455.937	14.25
456.286	14.19
456.635	14.43
456.984	14.54
457.332	13.48
457.681	13.64
458.03	13.82
458.378	14.13
458.727	14.39
459.075	14.67
459.423	15.04
459.772	15.3
460.12	15.57
460.468	15.86
460.817	16.14
461.165	16.35
461.513	16.58
461.861	16.81
462.209	17.02
462.557	17.17
462.905	17.27
463.253	17.3
463.601	17.31
463.949	17.52
464.297	17.69
464.644	17.81
464.992	18.02
465.34	18.09
465.687	18.37
466.035	18.44
466.383	18.55
466.73	18.65
467.078	18.77
467.425	18.66
467.772	18.59
468.12	18.47
468.467	18.31
468.814	18.3
469.161	18.15
469.508	18.06
469.856	18
470.203	18.03
470.55	17.86
470.897	17.76
471.243	17.59
471.59	17.39
471.937	17.36
472.284	17.29
472.631	17.1
472.977	16.91
473.324	16.85
473.671	16.74
474.017	16.59
474.364	16.36
474.71	16.15
475.057	15.98
475.403	15.87
475.749	15.82
476.096	15.85
476.442	15.82
476.788	15.78
477.134	15.8
477.48	15.75
477.826	15.78
478.172	15.76
478.518	15.76
478.864	15.71
479.21	15.81
479.556	15.89
479.902	16.06
480.248	16.26
480.593	16.3
480.939	16.39
481.285	16.5
481.63	16.66
481.976	16.77
482.321	17
482.667	17.24
483.012	17.42
483.357	17.81
483.703	18.06
484.048	18.34
484.393	18.56
484.738	18.82
485.084	19.17
485.429	19.5
485.774	19.87
486.119	20.21
486.464	20.61
486.808	20.96
487.153	21.43
487.498	21.96
487.843	22.47
488.188	22.94
488.532	23.46
488.877	23.92
489.222	24.6
489.566	25.23
489.911	25.82
490.255	26.51
490.6	27.15
490.944	27.67
491.288	28.25
491.633	28.98
491.977	29.54
492.321	30.15
492.665	30.74
493.009	31.36
493.353	32.02
493.697	32.54
494.041	33.23
494.385	33.87
494.729	34.53
495.073	35.12
495.417	35.78
495.76	36.33
496.104	36.99
496.448	37.59
496.791	38.41
497.135	39.05
497.479	39.71
497.822	40.3
498.165	40.95
498.509	41.74
498.852	42.39
499.196	43.18
499.539	43.99
499.882	44.66
500.225	45.27
500.568	45.89
500.911	46.62
501.254	47.32
501.597	47.94
501.94	48.55
502.283	49.3
502.626	49.94
502.969	50.61
503.312	51.21
503.654	51.99
503.997	52.73
504.34	53.41
504.682	54.1
505.025	54.76
505.367	55.39
505.71	56.11
506.052	56.82
506.395	57.57
506.737	58.22
507.079	58.81
507.421	59.59
507.764	60.18
508.106	60.6
508.448	61.22
508.79	61.78
509.132	62.44
509.474	62.93
509.816	63.38
510.158	64.02
510.499	64.65
510.841	65.15
511.183	65.7
511.525	66.21
511.866	66.76
512.208	67.06
512.549	67.49
512.891	67.99
513.232	68.49
513.574	68.93
513.915	69.25
514.256	69.64
514.598	70.01
514.939	70.46
515.28	70.88
515.621	71.16
515.962	71.39
516.303	71.72
516.644	72.16
516.985	72.49
517.326	72.89
517.667	73.2
518.008	73.48
518.349	73.76
518.69	73.98
519.03	74.12
519.371	74.32
519.712	74.6
520.052	74.71
520.393	74.93
520.733	75.18
521.074	75.55
521.414	75.93
521.754	76.12
522.095	76.34
522.435	76.65
522.775	76.86
523.115	77.3
523.455	77.51
523.795	77.52
524.135	77.79
524.475	78.04
524.815	78.19
525.155	78.35
525.495	78.6
525.835	78.75
526.175	78.94
526.514	79.16
526.854	79.36
527.194	79.49
527.533	79.58
527.873	79.63
528.212	79.6
528.552	79.68
528.891	79.85
529.23	80.06
529.57	80.1
529.909	80.01
530.248	79.95
530.587	80.02
530.927	79.91
531.266	79.92
531.605	79.95
531.944	80.06
532.283	80.27
532.621	80.39
532.96	80.53
533.299	80.6
533.638	80.79
533.977	80.74
534.315	80.85
534.654	80.87
534.992	80.8
535.331	80.67
535.67	80.72
536.008	80.82
536.346	80.98
536.685	81.06
537.023	81.21
537.361	81.09
537.7	81.18
538.038	81.22
538.376	81.32
538.714	81.4
539.052	81.48
539.39	81.76
539.728	82.05
540.066	81.96
540.404	82.01
540.741	82
541.079	81.92
541.417	81.92
541.755	82.22
542.092	82.18
542.43	82.39
542.767	82.42
543.105	82.3
543.442	82.44
543.78	82.62
544.117	82.71
544.454	82.87
544.792	82.94
545.129	82.81
545.466	82.73
545.803	82.88
546.14	82.78
546.477	82.93
546.814	83.05
547.151	83.06
547.488	83.09
547.825	82.93
548.162	82.76
548.499	82.96
548.835	82.81
549.172	82.78
549.509	82.78
549.845	82.64
550.182	82.17
550.518	82.28
550.855	82.11
551.191	81.98
551.528	82.28
551.864	82.32
552.2	82.35
552.537	82.4
552.873	82.64
553.209	82.54
553.545	82.72
553.881	82.89
554.217	83.15
554.553	83.16
554.889	83.22
555.225	83.26
555.561	83.31
555.896	83.31
556.232	83.55
556.568	83.69
556.903	83.53
557.239	83.55
557.575	83.51
557.91	83.48
558.245	83.61
558.581	83.97
558.916	83.84
559.252	83.97
559.587	84.21
559.922	83.97
560.257	83.86
560.592	83.92
560.928	84.01
561.263	83.91
561.598	84.04
561.933	84.23
562.267	84.44
562.602	84.29
562.937	84.4
563.272	84.46
563.607	84.31
563.941	84.43
564.276	84.68
564.611	84.46
564.945	84.7
565.28	84.83
565.614	84.92
565.949	85.07
566.283	85.24
566.617	85.27
566.951	85.19
567.286	85.42
567.62	85.46
567.954	85.3
568.288	85.27
568.622	85.25
568.956	85.17
569.29	85.07
569.624	84.96
569.958	84.97
570.292	84.95
570.626	84.81
570.959	84.84
571.293	84.86
571.627	84.78
571.96	84.8
572.294	84.76
572.627	84.69
572.961	84.86
573.294	84.67
573.627	84.61
573.961	84.67
574.294	84.79
574.627	84.81
574.961	84.91
575.294	85
575.627	84.95
575.96	84.88
576.293	84.81
576.626	84.9
576.959	84.96
577.292	85.11
577.624	85.13
577.957	85.17
578.29	85.13
578.623	85.08
578.955	85.04
579.288	84.98
579.62	84.92
579.953	84.98
580.285	84.97
580.618	85.02
580.95	85.05
581.282	85.07
581.615	85.12
581.947	85.24
582.279	85.12
582.611	84.97
582.943	85.04
583.275	84.96
583.607	84.9
583.939	84.78
584.271	84.71
584.603	84.88
584.935	84.85
585.267	84.99
585.598	84.92
585.93	85.06
586.262	85.1
586.593	85.08
586.925	85.11
587.256	85.08
587.588	85.11
587.919	85.1
588.25	85.04
588.582	85.12
588.913	85.06
589.244	85.01
589.575	84.88
589.907	84.78
590.238	84.7
590.569	84.86
590.9	84.96
591.231	84.8
591.562	84.6
591.892	84.78
592.223	84.89
592.554	85.04
592.885	84.97
593.215	84.92
593.546	84.55
593.877	84.5
594.207	84.35
594.538	84.39
594.868	84.63
595.198	84.67
595.529	84.83
595.859	84.76
596.189	84.86
596.52	84.84
596.85	84.92
597.18	85.06
597.51	84.96
597.84	85.09
598.17	85.15
598.5	85.08
598.83	85.07
599.16	85.03
599.489	85.05
599.819	85.2
600.149	84.99
600.479	85.04
600.808	84.95
601.138	84.94
601.467	84.98
601.797	85.33
602.126	85.38
602.456	85.42
602.785	85.27
603.114	84.98
603.443	84.9
603.773	85.04
604.102	85.23
604.431	85.21
604.76	85.1
605.089	84.99
605.418	84.85
605.747	84.92
606.076	84.59
606.405	84.39
606.733	84.58
607.062	84.5
607.391	84.41
607.72	84.16
608.048	84.09
608.377	84.07
608.705	84
609.034	84.2
609.362	84.15
609.69	84.06
610.019	83.8
610.347	83.7
610.675	83.47
611.004	83.23
611.332	83.34
611.66	83.08
611.988	82.67
612.316	82.53
612.644	82.57
612.972	82.57
613.3	82.45
613.627	82.44
613.955	82.39
614.283	82.4
614.611	82.56
614.938	82.23
615.266	82.05
615.593	81.96
615.921	82.26
616.248	82.04
616.576	82.05
616.903	81.98
617.23	81.67
617.558	81.74
617.885	82.25
618.212	82.44
618.539	82.45
618.866	82.79
619.193	83.06
619.52	82.86
619.847	83.06
620.174	83.4
620.501	83.2
620.828	82.8
621.155	82.7
621.481	82.81
621.808	82.8
622.135	82.54
622.461	82.74
622.788	82.59
623.114	82.58
623.441	82.69
623.767	82.94
624.093	82.91
624.42	82.87
624.746	83.33
625.072	83.34
625.398	83.34
625.725	83.24
626.051	82.36
626.377	82.41
626.703	82.37
627.029	82.1
627.354	81.98
627.68	81.97
628.006	81.94
628.332	81.57
628.658	81.62
628.983	82.14
629.309	82.29
629.634	81.98
629.96	81.6
630.285	81.93
630.611	81.7
630.936	82.03
631.262	81.97
631.587	82.21
631.912	82.03
632.237	81.85
632.562	82.37
632.887	81.5
633.213	81.08
633.538	81.09
633.863	80.94
634.187	81.21
634.512	81.03
634.837	81.24
635.162	80.92
635.487	80.64
635.811	80.84
636.136	80.83
636.461	80.36
636.785	80.43
637.11	79.73
637.434	79.24
637.758	79.06
638.083	79.61
638.407	79.48
638.731	79.63
639.056	79.53
639.38	79.58
639.704	79.38
640.028	79.41
640.352	79.26
640.676	79.23
641	79.07
641.324	79.12
641.648	78.84
641.972	78.92
642.295	78.67
642.619	78.87
642.943	78.73
643.266	79.37
643.59	79.2
643.913	79.02
644.237	79.06
644.56	79.51
644.884	79.49
645.207	79.58
645.53	79.95
645.854	80.14
646.177	79.77
646.5	79.69
646.823	79.58
647.146	79.73
647.469	79.67
647.792	79.14
648.115	78.66
648.438	78.89
648.761	80.6
649.084	82.3
649.406	83.62
649.729	83.38
650.052	83.23
650.374	83.37
650.697	83.31
651.019	83.26
651.342	83
651.664	83.21
