Data from T1_Reflection__18__20-23-20-446.txt Node

Date: Wed Jun 02 20:23:20 CEST 2021
User: mabdelazizm
Spectrometer: FLMS18565
Trigger mode: 0
Integration Time (sec): 2.000000E0
Scans to average: 1
Electric dark correction enabled: true
Nonlinearity correction enabled: false
Boxcar width: 12
XAxis mode: Wavelengths
Number of Pixels in Spectrum: 2048
>>>>>Begin Spectral Data<<<<<
179.071	69.65
179.452	64.11
179.833	60.97
180.214	22.73
180.595	9.81
180.977	11.01
181.358	1.03
181.739	24.58
182.12	-40.02
182.501	-60.16
182.882	-81.28
183.262	-1
183.643	57.11
184.024	32.83
184.405	28.07
184.786	16.52
185.166	22.49
185.547	12.74
185.927	13.61
186.308	20.65
186.689	22.6
187.069	24.34
187.449	29.21
187.83	25.63
188.21	28.27
188.59	24.6
188.971	20.37
189.351	17.74
189.731	12.05
190.111	10.32
190.491	9.76
190.871	8.98
191.251	11.21
191.631	8.33
192.011	8.29
192.391	7.67
192.771	10.39
193.151	10.49
193.531	8.87
193.91	5.43
194.29	5.95
194.67	5.9
195.049	7.7
195.429	6.87
195.808	6.73
196.188	5.68
196.567	3.67
196.946	2.99
197.326	3.26
197.705	2.58
198.084	2.71
198.464	4.03
198.843	4.23
199.222	5.57
199.601	6.02
199.98	7.54
200.359	7.93
200.738	7.21
201.117	8.12
201.496	8.21
201.875	8.41
202.254	7.43
202.632	6.58
203.011	6.75
203.39	7.43
203.768	6.55
204.147	7.2
204.525	6.33
204.904	7.54
205.282	8.18
205.661	7.67
206.039	8.3
206.418	8.23
206.796	8.31
207.174	7.46
207.552	7.43
207.931	6.56
208.309	6.56
208.687	6.49
209.065	6.68
209.443	5.96
209.821	5.21
210.199	4.75
210.577	3.98
210.954	2.99
211.332	2.47
211.71	3.07
212.088	3.9
212.465	3.57
212.843	3.46
213.221	3.59
213.598	3.48
213.976	3.01
214.353	2.69
214.731	2.02
215.108	1.67
215.485	1.29
215.863	1.27
216.24	0.38
216.617	0.58
216.994	0.46
217.371	0.63
217.749	0.46
218.126	0.63
218.503	0.36
218.88	0.22
219.256	-0.02
219.633	0.28
220.01	0.54
220.387	0.84
220.764	1.22
221.14	1.11
221.517	0.92
221.894	0.82
222.27	1.19
222.647	1.15
223.023	0.73
223.4	1.06
223.776	1.41
224.153	1.38
224.529	1.77
224.905	2.21
225.282	2.27
225.658	2.44
226.034	2.34
226.41	2.38
226.786	2.42
227.162	2.59
227.538	2.45
227.914	2.41
228.29	2.23
228.666	2.17
229.042	1.97
229.418	1.95
229.793	1.91
230.169	1.67
230.545	1.37
230.92	1.39
231.296	1.39
231.672	1.29
232.047	1.2
232.422	1.19
232.798	1.1
233.173	0.88
233.549	0.73
233.924	0.59
234.299	0.43
234.674	0.32
235.05	0.38
235.425	0.32
235.8	0.34
236.175	0.28
236.55	0.2
236.925	0.25
237.3	0.14
237.675	0.09
238.049	0.2
238.424	0.12
238.799	0.08
239.174	0.14
239.548	0.26
239.923	0.26
240.297	0.17
240.672	0.15
241.046	0.14
241.421	0.12
241.795	0.06
242.17	0.07
242.544	0.07
242.918	0.17
243.293	0.17
243.667	0.13
244.041	0.2
244.415	0.11
244.789	0.11
245.163	0.07
245.537	0.11
245.911	0.06
246.285	0
246.659	0.07
247.033	0.13
247.406	0.01
247.78	0.06
248.154	0.03
248.528	0.01
248.901	-0.04
249.275	-0.03
249.648	-0.05
250.022	-0.02
250.395	-0.01
250.769	0.04
251.142	0.07
251.515	0.1
251.888	0.14
252.262	0.1
252.635	0.11
253.008	0.15
253.381	0.09
253.754	0.11
254.127	0.12
254.5	0.1
254.873	0.03
255.246	0.06
255.619	0.02
255.992	-0.04
256.364	-0.06
256.737	-0.03
257.11	-0.04
257.483	-0.03
257.855	-0.03
258.228	-0.04
258.6	-0.01
258.973	-0.01
259.345	-0.06
259.718	-0.09
260.09	-0.13
260.462	-0.11
260.834	-0.15
261.207	-0.17
261.579	-0.11
261.951	-0.11
262.323	-0.1
262.695	-0.05
263.067	-0.03
263.439	-0.03
263.811	-0.04
264.183	0
264.555	0.02
264.927	0.03
265.298	0.04
265.67	0.04
266.042	0.08
266.413	0.07
266.785	0.09
267.156	0.06
267.528	0.02
267.899	-0
268.271	-0.02
268.642	0
269.013	-0.02
269.385	0.02
269.756	0
270.127	-0.05
270.498	-0.09
270.87	-0.13
271.241	-0.18
271.612	-0.19
271.983	-0.23
272.354	-0.27
272.724	-0.29
273.095	-0.28
273.466	-0.29
273.837	-0.27
274.208	-0.27
274.578	-0.28
274.949	-0.27
275.32	-0.29
275.69	-0.28
276.061	-0.32
276.431	-0.35
276.802	-0.29
277.172	-0.29
277.542	-0.28
277.913	-0.28
278.283	-0.24
278.653	-0.24
279.023	-0.26
279.394	-0.19
279.764	-0.16
280.134	-0.19
280.504	-0.15
280.874	-0.15
281.244	-0.18
281.614	-0.2
281.983	-0.15
282.353	-0.21
282.723	-0.21
283.093	-0.19
283.462	-0.23
283.832	-0.18
284.202	-0.21
284.571	-0.22
284.941	-0.22
285.31	-0.24
285.68	-0.25
286.049	-0.29
286.418	-0.29
286.788	-0.24
287.157	-0.23
287.526	-0.24
287.895	-0.25
288.264	-0.26
288.633	-0.28
289.002	-0.28
289.371	-0.27
289.74	-0.32
290.109	-0.35
290.478	-0.31
290.847	-0.29
291.216	-0.32
291.585	-0.3
291.953	-0.31
292.322	-0.38
292.691	-0.37
293.059	-0.4
293.428	-0.38
293.796	-0.39
294.165	-0.41
294.533	-0.4
294.901	-0.28
295.27	-0.27
295.638	-0.29
296.006	-0.3
296.374	-0.27
296.743	-0.32
297.111	-0.36
297.479	-0.35
297.847	-0.35
298.215	-0.38
298.583	-0.41
298.95	-0.38
299.318	-0.38
299.686	-0.34
300.054	-0.36
300.422	-0.43
300.789	-0.43
301.157	-0.45
301.525	-0.43
301.892	-0.45
302.26	-0.48
302.627	-0.5
302.994	-0.51
303.362	-0.46
303.729	-0.45
304.097	-0.6
304.464	-0.57
304.831	-0.58
305.198	-0.58
305.565	-0.62
305.932	-0.51
306.299	-0.46
306.666	-0.47
307.033	-0.47
307.4	-0.43
307.767	-0.41
308.134	-0.4
308.501	-0.37
308.867	-0.39
309.234	-0.38
309.601	-0.27
309.967	-0.2
310.334	-0.17
310.701	-0.18
311.067	-0.17
311.433	-0.11
311.8	-0.1
312.166	-0.1
312.533	-0.1
312.899	-0.04
313.265	0.02
313.631	0.01
313.997	-0.01
314.363	-0.01
314.729	-0.04
315.096	-0.09
315.461	-0.08
315.827	-0.07
316.193	-0.06
316.559	-0.12
316.925	-0.15
317.291	-0.13
317.656	-0.15
318.022	-0.16
318.388	-0.2
318.753	-0.25
319.119	-0.3
319.484	-0.3
319.85	-0.29
320.215	-0.28
320.581	-0.34
320.946	-0.31
321.311	-0.3
321.676	-0.32
322.042	-0.36
322.407	-0.36
322.772	-0.39
323.137	-0.39
323.502	-0.39
323.867	-0.41
324.232	-0.44
324.597	-0.48
324.962	-0.47
325.327	-0.43
325.691	-0.38
326.056	-0.34
326.421	-0.33
326.785	-0.32
327.15	-0.32
327.514	-0.29
327.879	-0.22
328.243	-0.22
328.608	-0.2
328.972	-0.23
329.337	-0.19
329.701	-0.17
330.065	-0.19
330.429	-0.18
330.794	-0.2
331.158	-0.11
331.522	-0.11
331.886	-0.05
332.25	-0.03
332.614	-0.1
332.978	-0.14
333.342	-0.11
333.705	-0.08
334.069	-0.1
334.433	-0.17
334.797	-0.21
335.16	-0.27
335.524	-0.36
335.887	-0.35
336.251	-0.4
336.614	-0.45
336.978	-0.51
337.341	-0.49
337.705	-0.43
338.068	-0.4
338.431	-0.44
338.794	-0.5
339.158	-0.52
339.521	-0.57
339.884	-0.61
340.247	-0.77
340.61	-0.77
340.973	-0.8
341.336	-0.78
341.699	-0.71
342.062	-0.65
342.424	-0.66
342.787	-0.7
343.15	-0.63
343.512	-0.63
343.875	-0.64
344.238	-0.64
344.6	-0.63
344.963	-0.65
345.325	-0.64
345.688	-0.55
346.05	-0.49
346.412	-0.49
346.775	-0.6
347.137	-0.56
347.499	-0.53
347.861	-0.44
348.223	-0.39
348.585	-0.33
348.947	-0.24
349.309	-0.11
349.671	-0.1
350.033	-0.14
350.395	-0.13
350.757	-0.15
351.118	-0.12
351.48	-0.11
351.842	-0.12
352.203	-0.18
352.565	-0.17
352.927	-0.1
353.288	-0.03
353.65	-0.01
354.011	-0.04
354.372	-0
354.734	0.01
355.095	-0.04
355.456	-0.07
355.817	-0.02
356.179	-0.06
356.54	-0.05
356.901	-0.04
357.262	-0.16
357.623	-0.17
357.984	-0.24
358.345	-0.29
358.705	-0.34
359.066	-0.41
359.427	-0.34
359.788	-0.34
360.148	-0.36
360.509	-0.32
360.87	-0.26
361.23	-0.32
361.591	-0.33
361.951	-0.39
362.312	-0.4
362.672	-0.38
363.032	-0.42
363.393	-0.45
363.753	-0.53
364.113	-0.57
364.473	-0.54
364.833	-0.57
365.193	-0.58
365.553	-0.65
365.913	-0.66
366.273	-0.61
366.633	-0.63
366.993	-0.69
367.353	-0.78
367.713	-0.79
368.072	-0.68
368.432	-0.78
368.792	-0.77
369.151	-0.75
369.511	-0.81
369.87	-0.86
370.23	-0.74
370.589	-0.75
370.949	-0.76
371.308	-0.71
371.667	-0.71
372.027	-0.61
372.386	-0.6
372.745	-0.63
373.104	-0.6
373.463	-0.67
373.822	-0.7
374.181	-0.69
374.54	-0.68
374.899	-0.76
375.258	-0.73
375.617	-0.68
375.975	-0.55
376.334	-0.43
376.693	-0.36
377.052	-0.43
377.41	-0.48
377.769	-0.49
378.127	-0.53
378.486	-0.57
378.844	-0.55
379.202	-0.59
379.561	-0.61
379.919	-0.59
380.277	-0.56
380.636	-0.6
380.994	-0.64
381.352	-0.65
381.71	-0.62
382.068	-0.66
382.426	-0.6
382.784	-0.5
383.142	-0.46
383.5	-0.42
383.857	-0.41
384.215	-0.44
384.573	-0.52
384.931	-0.6
385.288	-0.65
385.646	-0.7
386.003	-0.7
386.361	-0.63
386.718	-0.64
387.076	-0.66
387.433	-0.6
387.791	-0.66
388.148	-0.65
388.505	-0.55
388.862	-0.55
389.22	-0.59
389.577	-0.55
389.934	-0.55
390.291	-0.56
390.648	-0.57
391.005	-0.56
391.362	-0.65
391.718	-0.69
392.075	-0.74
392.432	-0.75
392.789	-0.74
393.145	-0.7
393.502	-0.7
393.859	-0.73
394.215	-0.75
394.572	-0.72
394.928	-0.73
395.285	-0.74
395.641	-0.69
395.997	-0.62
396.354	-0.56
396.71	-0.49
397.066	-0.53
397.422	-0.59
397.778	-0.61
398.134	-0.66
398.491	-0.63
398.846	-0.69
399.202	-0.65
399.558	-0.56
399.914	-0.53
400.27	-0.5
400.626	-0.53
400.981	-0.49
401.337	-0.55
401.693	-0.55
402.048	-0.52
402.404	-0.41
402.759	-0.34
403.115	-0.29
403.47	-0.25
403.826	-0.17
404.181	-0.19
404.536	-0.2
404.892	-0.18
405.247	-0.27
405.602	-0.23
405.957	-0.24
406.312	-0.23
406.667	-0.15
407.022	-0.16
407.377	-0.18
407.732	-0.07
408.087	-0.06
408.442	-0.02
408.796	0.03
409.151	0.11
409.506	0.14
409.86	0.08
410.215	0.17
410.57	0.16
410.924	0.15
411.279	0.09
411.633	0.1
411.987	0.15
412.342	0.15
412.696	0.15
413.05	0.22
413.404	0.23
413.758	0.23
414.113	0.24
414.467	0.25
414.821	0.31
415.175	0.46
415.529	0.52
415.882	0.61
416.236	0.71
416.59	0.84
416.944	0.94
417.298	1
417.651	1.02
418.005	1.02
418.358	1.1
418.712	1.26
419.065	1.35
419.419	1.46
419.772	1.58
420.126	1.71
420.479	1.88
420.832	1.98
421.185	2.11
421.539	2.25
421.892	2.3
422.245	2.45
422.598	2.69
422.951	2.81
423.304	2.96
423.657	3.05
424.01	3.2
424.363	3.32
424.715	3.46
425.068	3.59
425.421	3.65
425.773	3.69
426.126	3.86
426.479	4.04
426.831	4.18
427.184	4.41
427.536	4.59
427.889	4.8
428.241	5.04
428.593	5.2
428.945	5.41
429.298	5.59
429.65	5.8
430.002	5.93
430.354	6.07
430.706	6.28
431.058	6.32
431.41	6.42
431.762	6.64
432.114	6.71
432.466	6.91
432.817	7.04
433.169	7.12
433.521	7.37
433.872	7.47
434.224	7.54
434.576	7.76
434.927	7.8
435.279	7.84
435.63	7.93
435.981	8.03
436.333	8.11
436.684	8.17
437.035	8.15
437.387	8.14
437.738	8.13
438.089	8.06
438.44	8.06
438.791	8.09
439.142	8.09
439.493	8.1
439.844	8.11
440.195	8.07
440.545	8.1
440.896	8.17
441.247	8.19
441.598	8.04
441.948	8.14
442.299	8.11
442.649	8.14
443	8.18
443.35	8.18
443.701	8.2
444.051	8.19
444.401	8.3
444.752	8.18
445.102	8.11
445.452	8.05
445.802	8.04
446.152	8.12
446.502	8.21
446.852	8.26
447.202	8.19
447.552	8.25
447.902	8.36
448.252	8.46
448.602	9.67
448.952	9.81
449.301	9.91
449.651	9.92
450.001	9.97
450.35	10.24
450.7	10.27
451.049	10.4
451.399	10.53
451.748	10.7
452.097	10.85
452.447	10.91
452.796	11.07
453.145	11.22
453.494	11.34
453.843	11.58
454.193	11.89
454.542	12.06
454.891	12.27
455.239	12.34
455.588	12.58
455.937	12.84
456.286	12.91
456.635	13.01
456.984	13.13
457.332	12.14
457.681	12.37
458.03	12.53
458.378	12.81
458.727	13.04
459.075	13.08
459.423	13.4
459.772	13.56
460.12	13.66
460.468	13.87
460.817	14.09
461.165	14.22
461.513	14.44
461.861	14.44
462.209	14.59
462.557	14.59
462.905	14.62
463.253	14.68
463.601	14.64
463.949	14.78
464.297	14.78
464.644	14.73
464.992	14.85
465.34	14.92
465.687	14.91
466.035	14.83
466.383	14.71
466.73	14.64
467.078	14.48
467.425	14.3
467.772	14.27
468.12	13.99
468.467	13.84
468.814	13.73
469.161	13.52
469.508	13.21
469.856	13.02
470.203	12.87
470.55	12.77
470.897	12.54
471.243	12.48
471.59	12.2
471.937	12.16
472.284	12.06
472.631	11.87
472.977	11.65
473.324	11.6
473.671	11.44
474.017	11.18
474.364	11.09
474.71	10.96
475.057	10.91
475.403	10.83
475.749	10.83
476.096	10.81
476.442	10.79
476.788	10.8
477.134	10.79
477.48	10.79
477.826	10.83
478.172	10.84
478.518	10.91
478.864	10.93
479.21	11.07
479.556	11.23
479.902	11.37
480.248	11.63
480.593	11.75
480.939	11.96
481.285	12.18
481.63	12.41
481.976	12.62
482.321	12.92
482.667	13.23
483.012	13.47
483.357	13.86
483.703	14.15
484.048	14.58
484.393	14.96
484.738	15.42
485.084	15.81
485.429	16.33
485.774	16.84
486.119	17.36
486.464	17.93
486.808	18.49
487.153	19.21
487.498	19.88
487.843	20.52
488.188	21.19
488.532	21.93
488.877	22.7
489.222	23.6
489.566	24.36
489.911	25.19
490.255	26.17
490.6	27.12
490.944	27.91
491.288	28.87
491.633	29.73
491.977	30.48
492.321	31.24
492.665	31.96
493.009	32.73
493.353	33.54
493.697	34.33
494.041	35.19
494.385	36.01
494.729	36.82
495.073	37.58
495.417	38.43
495.76	39.15
496.104	39.96
496.448	40.69
496.791	41.59
497.135	42.3
497.479	42.99
497.822	43.55
498.165	44.25
498.509	44.95
498.852	45.48
499.196	46.04
499.539	46.68
499.882	47.13
500.225	47.71
500.568	48.27
500.911	48.82
501.254	49.4
501.597	49.86
501.94	50.22
502.283	50.78
502.626	51.13
502.969	51.45
503.312	51.77
503.654	52.12
503.997	52.52
504.34	52.85
504.682	53.14
505.025	53.52
505.367	53.68
505.71	54.1
506.052	54.45
506.395	54.78
506.737	55.04
507.079	55.2
507.421	55.62
507.764	55.9
508.106	56.11
508.448	56.34
508.79	56.58
509.132	56.85
509.474	57.13
509.816	57.29
510.158	57.63
510.499	57.8
510.841	57.9
511.183	58.18
511.525	58.4
511.866	58.67
512.208	58.8
512.549	58.94
512.891	59.06
513.232	59.14
513.574	59.32
513.915	59.58
514.256	59.56
514.598	59.73
514.939	59.91
515.28	60.04
515.621	60.24
515.962	60.34
516.303	60.47
516.644	60.52
516.985	60.68
517.326	60.87
517.667	60.82
518.008	60.89
518.349	61
518.69	61.07
519.03	61.07
519.371	61.03
519.712	61.05
520.052	61.07
520.393	61.06
520.733	61.2
521.074	61.29
521.414	61.36
521.754	61.46
522.095	61.39
522.435	61.36
522.775	61.52
523.115	61.57
523.455	61.58
523.795	61.7
524.135	61.7
524.475	61.67
524.815	61.66
525.155	61.77
525.495	61.9
525.835	62.08
526.175	62.15
526.514	62.25
526.854	62.28
527.194	62.23
527.533	62.28
527.873	62.39
528.212	62.31
528.552	62.28
528.891	62.35
529.23	62.19
529.57	62.23
529.909	62.33
530.248	62.4
530.587	62.44
530.927	62.49
531.266	62.37
531.605	62.49
531.944	62.65
532.283	62.6
532.621	62.62
532.96	62.69
533.299	62.69
533.638	62.69
533.977	62.63
534.315	62.47
534.654	62.61
534.992	62.41
535.331	62.37
535.67	62.23
536.008	62.38
536.346	62.45
536.685	62.47
537.023	62.6
537.361	62.66
537.7	62.88
538.038	62.9
538.376	62.87
538.714	62.86
539.052	62.95
539.39	62.93
539.728	63.12
540.066	63.04
540.404	63.06
540.741	63.06
541.079	62.99
541.417	62.97
541.755	63.25
542.092	63.45
542.43	63.42
542.767	63.45
543.105	63.47
543.442	63.54
543.78	63.56
544.117	63.74
544.454	63.91
544.792	63.99
545.129	63.98
545.466	63.95
545.803	64.03
546.14	64.1
546.477	64.16
546.814	64.16
547.151	64.2
547.488	64.14
547.825	64.08
548.162	64.09
548.499	64.07
548.835	64.01
549.172	63.96
549.509	64.06
549.845	64
550.182	63.84
550.518	63.8
550.855	63.85
551.191	63.89
551.528	63.86
551.864	64.05
552.2	63.99
552.537	64.06
552.873	63.92
553.209	63.89
553.545	63.97
553.881	64.05
554.217	64.03
554.553	63.89
554.889	63.85
555.225	63.97
555.561	63.84
555.896	63.85
556.232	64.06
556.568	63.86
556.903	63.87
557.239	63.95
557.575	63.89
557.91	63.87
558.245	64.02
558.581	64
558.916	64.17
559.252	64.2
559.587	64.14
559.922	64.09
560.257	64.03
560.592	64.18
560.928	64.16
561.263	64.35
561.598	64.31
561.933	64.33
562.267	64.44
562.602	64.44
562.937	64.44
563.272	64.62
563.607	64.54
563.941	64.63
564.276	64.72
564.611	64.64
564.945	64.8
565.28	64.79
565.614	64.63
565.949	64.87
566.283	64.87
566.617	64.89
566.951	64.85
567.286	64.81
567.62	64.88
567.954	64.84
568.288	64.77
568.622	64.78
568.956	64.69
569.29	64.59
569.624	64.61
569.958	64.65
570.292	64.6
570.626	64.55
570.959	64.54
571.293	64.57
571.627	64.54
571.96	64.6
572.294	64.61
572.627	64.58
572.961	64.69
573.294	64.63
573.627	64.67
573.961	64.8
574.294	64.76
574.627	64.85
574.961	64.69
575.294	64.81
575.627	64.73
575.96	64.64
576.293	64.59
576.626	64.67
576.959	64.69
577.292	64.75
577.624	64.76
577.957	64.7
578.29	64.7
578.623	64.69
578.955	64.73
579.288	64.68
579.62	64.68
579.953	64.57
580.285	64.46
580.618	64.42
580.95	64.45
581.282	64.38
581.615	64.5
581.947	64.49
582.279	64.39
582.611	64.34
582.943	64.31
583.275	64.4
583.607	64.28
583.939	64.3
584.271	64.32
584.603	64.51
584.935	64.44
585.267	64.51
585.598	64.63
585.93	64.74
586.262	64.74
586.593	64.76
586.925	64.76
587.256	64.6
587.588	64.63
587.919	64.63
588.25	64.8
588.582	64.87
588.913	64.85
589.244	64.84
589.575	64.88
589.907	64.89
590.238	64.91
590.569	64.98
590.9	65
591.231	64.97
591.562	64.9
591.892	64.88
592.223	64.93
592.554	64.9
592.885	64.72
593.215	64.62
593.546	64.33
593.877	64.02
594.207	63.86
594.538	63.8
594.868	63.7
595.198	63.74
595.529	63.81
595.859	63.74
596.189	63.89
596.52	63.7
596.85	63.74
597.18	64
597.51	64.09
597.84	64.04
598.17	63.93
598.5	63.83
598.83	63.78
599.16	63.83
599.489	63.82
599.819	63.78
600.149	63.73
600.479	63.69
600.808	63.77
601.138	63.76
601.467	63.75
601.797	64.05
602.126	64.23
602.456	64.26
602.785	64.21
603.114	64.31
603.443	64.23
603.773	64.21
604.102	64.25
604.431	64.2
604.76	64.2
605.089	64.21
605.418	63.9
605.747	63.82
606.076	63.64
606.405	63.6
606.733	63.56
607.062	63.56
607.391	63.48
607.72	63.38
608.048	63.7
608.377	63.78
608.705	63.67
609.034	63.67
609.362	63.57
609.69	63.72
610.019	63.56
610.347	63.52
610.675	63.47
611.004	63.31
611.332	63.31
611.66	63.29
611.988	63.25
612.316	63.29
612.644	63.19
612.972	63.28
613.3	63.23
613.627	63.36
613.955	63.3
614.283	63.25
614.611	63.17
614.938	63.35
615.266	63.29
615.593	63.35
615.921	63.57
616.248	63.22
616.576	63.42
616.903	63.46
617.23	63.38
617.558	63.67
617.885	63.89
618.212	63.89
618.539	63.75
618.866	64.03
619.193	64.38
619.52	64.1
619.847	64.21
620.174	64.45
620.501	64.46
620.828	64.35
621.155	64.32
621.481	64.2
621.808	64.02
622.135	63.9
622.461	64.1
622.788	64.11
623.114	64.04
623.441	64.19
623.767	64.02
624.093	63.92
624.42	64.1
624.746	63.92
625.072	63.84
625.398	63.95
625.725	63.76
626.051	63.57
626.377	63.66
626.703	63.63
627.029	63.68
627.354	63.79
627.68	64.23
628.006	64.34
628.332	63.78
628.658	63.52
628.983	63.8
629.309	63.54
629.634	63.56
629.96	63.74
630.285	63.93
630.611	63.97
630.936	64.35
631.262	64.4
631.587	64.42
631.912	64.77
632.237	64.52
632.562	64.77
632.887	64.85
633.213	65.09
633.538	64.81
633.863	64.9
634.187	65.03
634.512	64.74
634.837	65.22
635.162	64.72
635.487	64
635.811	63.69
636.136	63.44
636.461	63.7
636.785	64.02
637.11	63.6
637.434	63.71
637.758	63.67
638.083	63.92
638.407	63.67
638.731	63.64
639.056	63.55
639.38	63.38
639.704	63.11
640.028	62.97
640.352	62.97
640.676	62.77
641	62.45
641.324	62.01
641.648	62
641.972	61.57
642.295	61.15
642.619	61.11
642.943	60.74
643.266	61.4
643.59	61.67
643.913	61.9
644.237	61.97
644.56	62.03
644.884	62.1
645.207	62.39
645.53	62.6
645.854	62.85
646.177	62.61
646.5	62.91
646.823	63
647.146	63.16
647.469	63.03
647.792	62.9
648.115	62.84
648.438	63.18
648.761	63.21
649.084	63.29
649.406	63.64
649.729	63.3
650.052	63.15
650.374	63.12
650.697	63.47
651.019	63.31
651.342	63.06
651.664	63.19
651.987	63.07
652.309	63.12
652.631	63.33
652.953	63.12
653.276	63.05
653.598	62.97
653.92	62.98
654.242	62.9
