Data from T1_Reflection__44__20-43-24-408.txt Node

Date: Wed Jun 02 20:43:24 CEST 2021
User: mabdelazizm
Spectrometer: FLMS18565
Trigger mode: 0
Integration Time (sec): 2.000000E0
Scans to average: 1
Electric dark correction enabled: true
Nonlinearity correction enabled: false
Boxcar width: 12
XAxis mode: Wavelengths
Number of Pixels in Spectrum: 2048
>>>>>Begin Spectral Data<<<<<
179.071	-13.31
179.452	10.11
179.833	18.19
180.214	-34.55
180.595	-60.93
180.977	-81.64
181.358	-40.71
181.739	-14.58
182.12	-51.53
182.501	-92.58
182.882	-53.89
183.262	39
183.643	-9.15
184.024	20.03
184.405	11.43
184.786	4.4
185.166	5.24
185.547	6.15
185.927	6.45
186.308	14.26
186.689	11.15
187.069	13.79
187.449	17.29
187.83	15.65
188.21	15.91
188.59	15.67
188.971	16.63
189.351	16.39
189.731	11.48
190.111	11.26
190.491	11.62
190.871	12.68
191.251	13.74
191.631	10.98
192.011	9.89
192.391	9.77
192.771	12.36
193.151	12.12
193.531	11.57
193.91	11.01
194.29	9.72
194.67	10.87
195.049	11.27
195.429	10.51
195.808	9.43
196.188	9.63
196.567	7.22
196.946	6.93
197.326	6.5
197.705	6.55
198.084	5.55
198.464	4.71
198.843	4.44
199.222	5.67
199.601	5.22
199.98	5.15
200.359	5.27
200.738	7.07
201.117	8.37
201.496	8.83
201.875	8.35
202.254	6.95
202.632	5.92
203.011	4.56
203.39	4.55
203.768	4.02
204.147	3.76
204.525	2.75
204.904	3.73
205.282	4.99
205.661	4.1
206.039	4.86
206.418	5.28
206.796	5.84
207.174	5.41
207.552	5.17
207.931	5.67
208.309	6.25
208.687	5.48
209.065	4.98
209.443	5.49
209.821	5.07
210.199	3.61
210.577	2.61
210.954	1.54
211.332	1.94
211.71	3.57
212.088	4.84
212.465	5.24
212.843	5.22
213.221	6.15
213.598	6.76
213.976	7.35
214.353	7.18
214.731	5.82
215.108	5.67
215.485	4.86
215.863	4.3
216.24	3.79
216.617	3.5
216.994	3.95
217.371	3.6
217.749	3.17
218.126	3.44
218.503	3.37
218.88	3.32
219.256	2.92
219.633	3.18
220.01	3.24
220.387	3.55
220.764	3.48
221.14	3.02
221.517	2.79
221.894	2.61
222.27	2.33
222.647	2.2
223.023	1.8
223.4	2.12
223.776	2.33
224.153	2.9
224.529	2.77
224.905	3.41
225.282	3.5
225.658	3.35
226.034	3.16
226.41	3.12
226.786	3.4
227.162	3.47
227.538	3.47
227.914	3.71
228.29	3.57
228.666	3.57
229.042	3.32
229.418	3.41
229.793	3.47
230.169	3.57
230.545	3.23
230.92	3.35
231.296	3.22
231.672	3.31
232.047	3.25
232.422	3.28
232.798	3.11
233.173	2.96
233.549	2.86
233.924	3.02
234.299	2.89
234.674	2.85
235.05	2.93
235.425	3.01
235.8	3.02
236.175	2.88
236.55	2.83
236.925	2.69
237.3	2.55
237.675	2.47
238.049	2.54
238.424	2.56
238.799	2.5
239.174	2.52
239.548	2.48
239.923	2.54
240.297	2.42
240.672	2.36
241.046	2.34
241.421	2.33
241.795	2.31
242.17	2.29
242.544	2.29
242.918	2.19
243.293	2.1
243.667	2.11
244.041	2.09
244.415	2.05
244.789	2.04
245.163	2.04
245.537	2.02
245.911	1.96
246.285	2
246.659	2.01
247.033	2.1
247.406	2.02
247.78	1.98
248.154	1.97
248.528	1.9
248.901	1.91
249.275	1.91
249.648	1.81
250.022	1.87
250.395	1.88
250.769	1.93
251.142	1.93
251.515	1.92
251.888	1.92
252.262	2.01
252.635	2.04
253.008	2.02
253.381	2.06
253.754	2.06
254.127	2.09
254.5	2.03
254.873	2.04
255.246	2.06
255.619	2.03
255.992	2
256.364	1.88
256.737	1.9
257.11	1.96
257.483	1.95
257.855	1.97
258.228	1.89
258.6	1.92
258.973	2.04
259.345	2.02
259.718	1.99
260.09	1.93
260.462	1.89
260.834	1.88
261.207	1.86
261.579	1.76
261.951	1.78
262.323	1.78
262.695	1.74
263.067	1.76
263.439	1.72
263.811	1.66
264.183	1.67
264.555	1.69
264.927	1.68
265.298	1.74
265.67	1.78
266.042	1.74
266.413	1.63
266.785	1.69
267.156	1.68
267.528	1.71
267.899	1.68
268.271	1.6
268.642	1.69
269.013	1.71
269.385	1.75
269.756	1.74
270.127	1.74
270.498	1.73
270.87	1.74
271.241	1.69
271.612	1.63
271.983	1.61
272.354	1.61
272.724	1.62
273.095	1.67
273.466	1.7
273.837	1.66
274.208	1.66
274.578	1.62
274.949	1.68
275.32	1.72
275.69	1.76
276.061	1.68
276.431	1.66
276.802	1.68
277.172	1.68
277.542	1.7
277.913	1.63
278.283	1.57
278.653	1.55
279.023	1.55
279.394	1.56
279.764	1.57
280.134	1.58
280.504	1.64
280.874	1.72
281.244	1.7
281.614	1.65
281.983	1.59
282.353	1.58
282.723	1.57
283.093	1.59
283.462	1.55
283.832	1.57
284.202	1.46
284.571	1.44
284.941	1.45
285.31	1.43
285.68	1.45
286.049	1.44
286.418	1.45
286.788	1.51
287.157	1.49
287.526	1.51
287.895	1.53
288.264	1.56
288.633	1.53
289.002	1.52
289.371	1.5
289.74	1.38
290.109	1.31
290.478	1.3
290.847	1.31
291.216	1.32
291.585	1.29
291.953	1.23
292.322	1.16
292.691	1.15
293.059	1.09
293.428	1.09
293.796	1.1
294.165	1.04
294.533	1.04
294.901	1.07
295.27	1.06
295.638	1.02
296.006	0.94
296.374	0.9
296.743	0.88
297.111	0.86
297.479	0.76
297.847	0.73
298.215	0.75
298.583	0.73
298.95	0.81
299.318	0.83
299.686	0.85
300.054	0.84
300.422	0.84
300.789	0.83
301.157	0.87
301.525	0.91
301.892	0.94
302.26	0.97
302.627	0.95
302.994	0.98
303.362	1.04
303.729	1.06
304.097	1.01
304.464	1.01
304.831	1.02
305.198	1.03
305.565	1.06
305.932	1.1
306.299	1.11
306.666	1.14
307.033	1.19
307.4	1.25
307.767	1.27
308.134	1.26
308.501	1.22
308.867	1.22
309.234	1.2
309.601	1.21
309.967	1.22
310.334	1.27
310.701	1.26
311.067	1.26
311.433	1.28
311.8	1.31
312.166	1.25
312.533	1.27
312.899	1.36
313.265	1.31
313.631	1.29
313.997	1.24
314.363	1.26
314.729	1.22
315.096	1.23
315.461	1.16
315.827	1.17
316.193	1.18
316.559	1.1
316.925	1.07
317.291	1.03
317.656	1
318.022	0.99
318.388	1.02
318.753	0.98
319.119	0.96
319.484	0.93
319.85	0.92
320.215	0.93
320.581	0.87
320.946	0.84
321.311	0.85
321.676	0.81
322.042	0.73
322.407	0.78
322.772	0.79
323.137	0.79
323.502	0.76
323.867	0.76
324.232	0.75
324.597	0.78
324.962	0.81
325.327	0.78
325.691	0.78
326.056	0.79
326.421	0.85
326.785	0.87
327.15	0.87
327.514	0.85
327.879	0.9
328.243	0.87
328.608	0.9
328.972	0.88
329.337	0.85
329.701	0.9
330.065	0.97
330.429	0.9
330.794	0.9
331.158	0.96
331.522	0.94
331.886	0.98
332.25	0.97
332.614	0.93
332.978	0.9
333.342	0.88
333.705	0.88
334.069	0.88
334.433	0.85
334.797	0.81
335.16	0.8
335.524	0.79
335.887	0.84
336.251	0.86
336.614	0.83
336.978	0.83
337.341	0.88
337.705	0.88
338.068	0.98
338.431	0.96
338.794	0.91
339.158	0.87
339.521	0.86
339.884	0.82
340.247	0.68
340.61	0.7
340.973	0.65
341.336	0.73
341.699	0.78
342.062	0.85
342.424	0.78
342.787	0.75
343.15	0.72
343.512	0.75
343.875	0.79
344.238	0.8
344.6	0.72
344.963	0.68
345.325	0.69
345.688	0.74
346.05	0.77
346.412	0.75
346.775	0.65
347.137	0.62
347.499	0.68
347.861	0.73
348.223	0.77
348.585	0.77
348.947	0.81
349.309	0.85
349.671	0.83
350.033	0.83
350.395	0.78
350.757	0.79
351.118	0.77
351.48	0.89
351.842	0.93
352.203	0.93
352.565	0.94
352.927	0.93
353.288	0.97
353.65	1.03
354.011	1.07
354.372	1.06
354.734	1.06
355.095	0.99
355.456	0.97
355.817	1.03
356.179	0.97
356.54	0.94
356.901	0.86
357.262	0.78
357.623	0.79
357.984	0.82
358.345	0.8
358.705	0.79
359.066	0.69
359.427	0.82
359.788	0.81
360.148	0.79
360.509	0.74
360.87	0.76
361.23	0.74
361.591	0.69
361.951	0.63
362.312	0.56
362.672	0.47
363.032	0.38
363.393	0.39
363.753	0.35
364.113	0.35
364.473	0.41
364.833	0.39
365.193	0.4
365.553	0.34
365.913	0.42
366.273	0.43
366.633	0.53
366.993	0.45
367.353	0.4
367.713	0.41
368.072	0.48
368.432	0.36
368.792	0.36
369.151	0.39
369.511	0.36
369.87	0.3
370.23	0.34
370.589	0.33
370.949	0.36
371.308	0.42
371.667	0.44
372.027	0.48
372.386	0.44
372.745	0.46
373.104	0.42
373.463	0.29
373.822	0.28
374.181	0.25
374.54	0.31
374.899	0.3
375.258	0.4
375.617	0.39
375.975	0.51
376.334	0.63
376.693	0.65
377.052	0.61
377.41	0.57
377.769	0.56
378.127	0.53
378.486	0.56
378.844	0.54
379.202	0.5
379.561	0.5
379.919	0.47
380.277	0.45
380.636	0.47
380.994	0.49
381.352	0.55
381.71	0.53
382.068	0.56
382.426	0.64
382.784	0.7
383.142	0.74
383.5	0.69
383.857	0.68
384.215	0.62
384.573	0.55
384.931	0.48
385.288	0.4
385.646	0.34
386.003	0.35
386.361	0.32
386.718	0.33
387.076	0.32
387.433	0.32
387.791	0.26
388.148	0.31
388.505	0.38
388.862	0.42
389.22	0.47
389.577	0.38
389.934	0.38
390.291	0.31
390.648	0.25
391.005	0.27
391.362	0.22
391.718	0.16
392.075	0.1
392.432	0.15
392.789	0.2
393.145	0.19
393.502	0.24
393.859	0.18
394.215	0.23
394.572	0.3
394.928	0.34
395.285	0.38
395.641	0.29
395.997	0.28
396.354	0.31
396.71	0.45
397.066	0.38
397.422	0.39
397.778	0.31
398.134	0.25
398.491	0.3
398.846	0.3
399.202	0.33
399.558	0.4
399.914	0.37
400.27	0.41
400.626	0.42
400.981	0.47
401.337	0.47
401.693	0.37
402.048	0.36
402.404	0.48
402.759	0.46
403.115	0.5
403.47	0.48
403.826	0.42
404.181	0.47
404.536	0.54
404.892	0.6
405.247	0.53
405.602	0.43
405.957	0.41
406.312	0.37
406.667	0.49
407.022	0.5
407.377	0.57
407.732	0.56
408.087	0.51
408.442	0.55
408.796	0.58
409.151	0.66
409.506	0.65
409.86	0.59
410.215	0.67
410.57	0.71
410.924	0.73
411.279	0.5
411.633	0.58
411.987	0.6
412.342	0.65
412.696	0.65
413.05	0.68
413.404	0.68
413.758	0.65
414.113	0.66
414.467	0.73
414.821	0.9
415.175	0.99
415.529	1.01
415.882	1.02
416.236	1.01
416.59	1.05
416.944	1.11
417.298	1.16
417.651	1.14
418.005	1.09
418.358	1.1
418.712	1.19
419.065	1.12
419.419	1.04
419.772	1.03
420.126	1.06
420.479	1.14
420.832	1.11
421.185	1.14
421.539	1.23
421.892	1.2
422.245	1.27
422.598	1.28
422.951	1.27
423.304	1.24
423.657	1.16
424.01	1.16
424.363	1.13
424.715	1.18
425.068	1.18
425.421	1.18
425.773	1.18
426.126	1.18
426.479	1.21
426.831	1.19
427.184	1.25
427.536	1.24
427.889	1.24
428.241	1.42
428.593	1.43
428.945	1.53
429.298	1.51
429.65	1.54
430.002	1.51
430.354	1.49
430.706	1.47
431.058	1.43
431.41	1.53
431.762	1.62
432.114	1.64
432.466	1.67
432.817	1.6
433.169	1.67
433.521	1.76
433.872	1.83
434.224	1.78
434.576	1.83
434.927	1.84
435.279	1.82
435.63	1.8
435.981	1.84
436.333	1.88
436.684	1.99
437.035	1.93
437.387	1.97
437.738	1.97
438.089	1.86
438.44	1.81
438.791	1.77
439.142	1.76
439.493	1.75
439.844	1.75
440.195	1.69
440.545	1.78
440.896	1.8
441.247	1.81
441.598	1.85
441.948	1.79
442.299	1.71
442.649	1.63
443	1.63
443.35	1.56
443.701	1.48
444.051	1.47
444.401	1.61
444.752	1.57
445.102	1.55
445.452	1.45
445.802	1.36
446.152	1.41
446.502	1.46
446.852	1.59
447.202	1.54
447.552	1.54
447.902	1.56
448.252	1.52
448.602	2.84
448.952	2.84
449.301	2.75
449.651	2.73
450.001	2.78
450.35	2.79
450.7	2.9
451.049	2.98
451.399	3.05
451.748	3.16
452.097	3.22
452.447	3.21
452.796	3.25
453.145	3.3
453.494	3.27
453.843	3.31
454.193	3.48
454.542	3.65
454.891	3.71
455.239	3.69
455.588	3.63
455.937	3.7
456.286	3.71
456.635	3.74
456.984	3.87
457.332	2.39
457.681	2.42
458.03	2.49
458.378	2.58
458.727	2.53
459.075	2.56
459.423	2.64
459.772	2.67
460.12	2.62
460.468	2.75
460.817	2.83
461.165	2.88
461.513	2.91
461.861	2.8
462.209	2.85
462.557	2.79
462.905	2.68
463.253	2.59
463.601	2.51
463.949	2.58
464.297	2.58
464.644	2.59
464.992	2.64
465.34	2.64
465.687	2.65
466.035	2.59
466.383	2.57
466.73	2.57
467.078	2.59
467.425	2.67
467.772	2.63
468.12	2.49
468.467	2.42
468.814	2.49
469.161	2.36
469.508	2.3
469.856	2.34
470.203	2.34
470.55	2.37
470.897	2.29
471.243	2.29
471.59	2.28
471.937	2.27
472.284	2.18
472.631	2.08
472.977	2.07
473.324	2.12
473.671	2.12
474.017	2.09
474.364	2.06
474.71	2
475.057	1.97
475.403	1.82
475.749	1.81
476.096	1.74
476.442	1.71
476.788	1.72
477.134	1.69
477.48	1.72
477.826	1.73
478.172	1.7
478.518	1.68
478.864	1.59
479.21	1.63
479.556	1.64
479.902	1.74
480.248	1.79
480.593	1.8
480.939	1.83
481.285	1.86
481.63	1.88
481.976	1.85
482.321	1.87
482.667	1.89
483.012	1.9
483.357	2.09
483.703	2.16
484.048	2.37
484.393	2.41
484.738	2.55
485.084	2.63
485.429	2.76
485.774	2.89
486.119	2.93
486.464	3.06
486.808	3.14
487.153	3.33
487.498	3.63
487.843	3.8
488.188	4.05
488.532	4.24
488.877	4.39
489.222	4.78
489.566	5.17
489.911	5.49
490.255	5.92
490.6	6.38
490.944	6.73
491.288	7.15
491.633	7.54
491.977	7.83
492.321	8.22
492.665	8.56
493.009	9
493.353	9.38
493.697	9.89
494.041	10.36
494.385	10.94
494.729	11.53
495.073	12.07
495.417	12.72
495.76	13.23
496.104	13.71
496.448	14.35
496.791	15
497.135	15.57
497.479	16.35
497.822	16.9
498.165	17.54
498.509	18.27
498.852	18.93
499.196	19.65
499.539	20.34
499.882	20.97
500.225	21.75
500.568	22.53
500.911	23.27
501.254	23.99
501.597	24.73
501.94	25.48
502.283	26.24
502.626	27.02
502.969	27.74
503.312	28.44
503.654	29.12
503.997	29.88
504.34	30.7
504.682	31.57
505.025	32.25
505.367	33.03
505.71	33.86
506.052	34.6
506.395	35.37
506.737	36.06
507.079	36.67
507.421	37.42
507.764	38.1
508.106	38.78
508.448	39.53
508.79	40.26
509.132	40.99
509.474	41.7
509.816	42.34
510.158	43.04
510.499	43.65
510.841	44.2
511.183	44.81
511.525	45.33
511.866	45.93
512.208	46.48
512.549	47.11
512.891	47.66
513.232	48.07
513.574	48.63
513.915	49
514.256	49.45
514.598	49.87
514.939	50.48
515.28	50.98
515.621	51.63
515.962	52.05
516.303	52.51
516.644	53.04
516.985	53.43
517.326	53.71
517.667	53.93
518.008	54.2
518.349	54.55
518.69	54.89
519.03	55.23
519.371	55.55
519.712	55.76
520.052	56.09
520.393	56.37
520.733	56.7
521.074	56.94
521.414	57.29
521.754	57.67
522.095	57.92
522.435	58.29
522.775	58.51
523.115	58.98
523.455	59.06
523.795	59.17
524.135	59.22
524.475	59.4
524.815	59.59
525.155	59.77
525.495	60.01
525.835	60.47
526.175	60.73
526.514	61.02
526.854	61.21
527.194	61.35
527.533	61.36
527.873	61.54
528.212	61.7
528.552	61.78
528.891	62.02
529.23	62.29
529.57	62.39
529.909	62.35
530.248	62.41
530.587	62.53
530.927	62.72
531.266	62.95
531.605	63.1
531.944	63.2
532.283	63.61
532.621	63.89
532.96	64.05
533.299	64.1
533.638	64.13
533.977	64.16
534.315	64.29
534.654	64.51
534.992	64.49
535.331	64.48
535.67	64.5
536.008	64.62
536.346	64.64
536.685	64.8
537.023	64.95
537.361	64.98
537.7	65.1
538.038	65.15
538.376	65.35
538.714	65.5
539.052	65.64
539.39	65.58
539.728	65.63
540.066	65.45
540.404	65.66
540.741	65.62
541.079	65.38
541.417	65.54
541.755	65.81
542.092	65.91
542.43	66.11
542.767	65.89
543.105	65.82
543.442	65.87
543.78	66.12
544.117	66.32
544.454	66.57
544.792	66.77
545.129	66.77
545.466	66.76
545.803	66.96
546.14	66.89
546.477	67.03
546.814	67.11
547.151	67.03
547.488	67.01
547.825	67.09
548.162	67.15
548.499	67.22
548.835	67.1
549.172	67.04
549.509	67.28
549.845	67.21
550.182	67.03
550.518	66.92
550.855	66.86
551.191	67.01
551.528	67.14
551.864	67.35
552.2	67.18
552.537	67.24
552.873	67.38
553.209	67.45
553.545	67.44
553.881	67.68
554.217	67.76
554.553	67.73
554.889	67.77
555.225	67.85
555.561	67.85
555.896	67.78
556.232	67.9
556.568	67.83
556.903	67.76
557.239	67.89
557.575	67.81
557.91	67.8
558.245	67.96
558.581	68.17
558.916	68.54
559.252	68.63
559.587	68.52
559.922	68.5
560.257	68.46
560.592	68.62
560.928	68.49
561.263	68.63
561.598	68.61
561.933	68.81
562.267	68.74
562.602	68.55
562.937	68.84
563.272	69.01
563.607	69.06
563.941	69.27
564.276	69.66
564.611	69.77
564.945	69.85
565.28	70.05
565.614	70.01
565.949	70.2
566.283	70.44
566.617	70.41
566.951	70.44
567.286	70.37
567.62	70.57
567.954	70.65
568.288	70.56
568.622	70.55
568.956	70.48
569.29	70.39
569.624	70.32
569.958	70.4
570.292	70.3
570.626	70.3
570.959	70.49
571.293	70.33
571.627	70.31
571.96	70.26
572.294	70.36
572.627	70.26
572.961	70.25
573.294	70.31
573.627	70.4
573.961	70.61
574.294	70.66
574.627	70.54
574.961	70.55
575.294	70.56
575.627	70.61
575.96	70.42
576.293	70.45
576.626	70.56
576.959	70.54
577.292	70.61
577.624	70.69
577.957	70.72
578.29	70.72
578.623	70.82
578.955	70.87
579.288	70.72
579.62	70.86
579.953	70.86
580.285	70.97
580.618	70.89
580.95	70.98
581.282	70.98
581.615	71.07
581.947	71.1
582.279	70.98
582.611	70.89
582.943	70.97
583.275	71.08
583.607	71.02
583.939	70.98
584.271	71
584.603	71.12
584.935	71.05
585.267	71.15
585.598	71.28
585.93	71.57
586.262	71.58
586.593	71.64
586.925	71.59
587.256	71.56
587.588	71.75
587.919	71.68
588.25	71.82
588.582	71.65
588.913	71.72
589.244	71.77
589.575	71.77
589.907	71.61
590.238	71.46
590.569	71.46
590.9	71.69
591.231	71.6
591.562	71.48
591.892	71.48
592.223	71.56
592.554	71.73
592.885	71.68
593.215	71.66
593.546	71.51
593.877	71.44
594.207	71.16
594.538	71.18
594.868	71.12
595.198	71.13
595.529	71.28
595.859	71.14
596.189	71.14
596.52	71.08
596.85	71.34
597.18	71.35
597.51	71.27
597.84	71.38
598.17	71.43
598.5	71.28
598.83	71.32
599.16	71.25
599.489	71.28
599.819	71.28
600.149	71.17
600.479	71.21
600.808	71.11
601.138	71.02
601.467	71.06
601.797	71.16
602.126	71.16
602.456	71.23
602.785	71.08
603.114	71
603.443	70.97
603.773	70.95
604.102	71.12
604.431	71.2
604.76	71.02
605.089	70.88
605.418	70.72
605.747	70.67
606.076	70.42
606.405	70.42
606.733	70.55
607.062	70.58
607.391	70.45
607.72	70.22
608.048	70.2
608.377	70.27
608.705	70.22
609.034	70.46
609.362	70.48
609.69	70.45
610.019	70.42
610.347	70.36
610.675	70.17
611.004	70.03
611.332	70.2
611.66	69.98
611.988	69.94
612.316	69.74
612.644	69.71
612.972	69.68
613.3	69.58
613.627	69.46
613.955	69.46
614.283	69.64
614.611	69.66
614.938	69.83
615.266	69.67
615.593	69.76
615.921	69.92
616.248	69.77
616.576	70.17
616.903	70.16
617.23	69.84
617.558	69.73
617.885	69.86
618.212	69.94
618.539	69.89
618.866	70.13
619.193	70.38
619.52	70.3
619.847	70.64
620.174	70.68
620.501	70.56
620.828	70.39
621.155	70.53
621.481	70.57
621.808	70.8
622.135	70.8
622.461	71.03
622.788	70.98
623.114	70.92
623.441	71.02
623.767	71
624.093	71.16
624.42	71.53
624.746	71.3
625.072	71.31
625.398	71.49
625.725	71.44
626.051	71.47
626.377	71.95
626.703	71.91
627.029	71.94
627.354	71.9
627.68	71.97
628.006	72
628.332	71.4
628.658	71.85
628.983	71.88
629.309	71.88
629.634	71.8
629.96	71.9
630.285	72.05
630.611	71.51
630.936	71.54
631.262	71.36
631.587	71.82
631.912	72.17
632.237	72.25
632.562	72.37
632.887	72.28
633.213	72.07
633.538	71.78
633.863	71.97
634.187	71.91
634.512	71.29
634.837	71.91
635.162	71.8
635.487	71.5
635.811	71.61
636.136	71.72
636.461	71.86
636.785	71.76
637.11	71.79
637.434	71.72
637.758	71.65
638.083	71.73
638.407	71.66
638.731	72.18
639.056	72.54
639.38	72.7
639.704	72.71
640.028	72.03
640.352	72.21
640.676	71.87
641	72.07
641.324	71.57
641.648	72
641.972	71.75
642.295	71.23
642.619	70.9
642.943	70.67
643.266	70.56
643.59	70.83
643.913	70.24
644.237	69.44
644.56	69.26
644.884	69.39
645.207	69.6
645.53	69.8
645.854	69.95
646.177	69.56
646.5	69.75
646.823	69.02
647.146	68.9
647.469	68.62
647.792	67.72
648.115	67.72
648.438	67.71
648.761	69.52
649.084	69.29
649.406	70.51
649.729	69.91
650.052	69.62
650.374	69.61
650.697	69.77
651.019	69.57
651.342	69.59
651.664	69.79
651.987	69.82
652.309	70.11
652.631	70.34
652.953	70.17
653.276	70
653.598	69.95
653.92	69.97
654.242	69.99
654.564	69.84
654.886	70.04
655.208	69.78
655.53	69.96
655.851	70.03
656.173	70.22
656.495	70.3
656.816	69.49
657.138	69.45
657.46	67.95
657.781	68.16
658.103	68.48
658.424	69.21
658.746	68.5
659.067	68.27
659.388	68.14
659.709	67.53
660.031	67.11
660.352	66.76
660.673	66.04
660.994	66.95
661.315	67.5
661.636	67.09
661.957	66.65
662.278	67.42
662.599	67.36
662.919	66.73
663.24	67.71
663.561	66.87
663.881	67.02
664.202	66.77
664.523	65.7
664.843	65.83
