Data from T1_Reflection__36__20-37-38-418.txt Node

Date: Wed Jun 02 20:37:38 CEST 2021
User: mabdelazizm
Spectrometer: FLMS18565
Trigger mode: 0
Integration Time (sec): 2.000000E0
Scans to average: 1
Electric dark correction enabled: true
Nonlinearity correction enabled: false
Boxcar width: 12
XAxis mode: Wavelengths
Number of Pixels in Spectrum: 2048
>>>>>Begin Spectral Data<<<<<
179.071	76.95
179.452	58.89
179.833	51.4
180.214	27.27
180.595	17.65
180.977	33.22
181.358	32.54
181.739	50.83
182.12	51.41
182.501	64.29
182.882	56.53
183.262	94
183.643	-152.44
184.024	3.78
184.405	12.51
184.786	14.62
185.166	12
185.547	15.02
185.927	16.41
186.308	19.04
186.689	19.19
187.069	23.24
187.449	28.67
187.83	27.46
188.21	29.11
188.59	26.56
188.971	24.46
189.351	21.31
189.731	17.24
190.111	15.92
190.491	16.91
190.871	16.98
191.251	16.56
191.631	15.85
192.011	16.2
192.391	14.37
192.771	15.99
193.151	17.62
193.531	16.96
193.91	16.14
194.29	16.18
194.67	16.91
195.049	16
195.429	14.42
195.808	14.34
196.188	14.83
196.567	12.12
196.946	9.51
197.326	9.45
197.705	8.76
198.084	8.56
198.464	8.95
198.843	9.59
199.222	11.3
199.601	11.06
199.98	10.84
200.359	11.24
200.738	13.25
201.117	13.5
201.496	13.01
201.875	13.46
202.254	12.18
202.632	10.48
203.011	9.73
203.39	9.81
203.768	8.51
204.147	8.22
204.525	7.25
204.904	8.1
205.282	9.13
205.661	7.57
206.039	8.66
206.418	8.97
206.796	8.88
207.174	8.37
207.552	8.84
207.931	8.14
208.309	7.87
208.687	6.61
209.065	7.38
209.443	7.78
209.821	7.15
210.199	5.65
210.577	4.78
210.954	4.33
211.332	4.5
211.71	5.97
212.088	7.24
212.465	7.2
212.843	7.62
213.221	8.28
213.598	8.55
213.976	9.19
214.353	9.3
214.731	8.62
215.108	8.77
215.485	8.11
215.863	7.74
216.24	7.28
216.617	6.97
216.994	6.73
217.371	6.27
217.749	5.88
218.126	6.03
218.503	5.33
218.88	5.02
219.256	4.3
219.633	4.31
220.01	4.49
220.387	4.9
220.764	4.94
221.14	4.03
221.517	3.4
221.894	3.39
222.27	3.07
222.647	2.65
223.023	2.46
223.4	2.51
223.776	2.63
224.153	2.75
224.529	2.46
224.905	2.86
225.282	2.86
225.658	2.75
226.034	2.69
226.41	2.71
226.786	2.91
227.162	3.04
227.538	3.01
227.914	3.05
228.29	2.81
228.666	2.97
229.042	2.85
229.418	2.85
229.793	2.66
230.169	2.66
230.545	2.58
230.92	2.72
231.296	2.64
231.672	2.58
232.047	2.74
232.422	2.8
232.798	2.54
233.173	2.43
233.549	2.24
233.924	2.21
234.299	1.99
234.674	2
235.05	2.09
235.425	2.02
235.8	2.09
236.175	2.08
236.55	2.05
236.925	2.08
237.3	2.02
237.675	1.96
238.049	1.94
238.424	1.93
238.799	1.9
239.174	1.92
239.548	1.86
239.923	1.86
240.297	1.79
240.672	1.73
241.046	1.76
241.421	1.71
241.795	1.65
242.17	1.7
242.544	1.66
242.918	1.69
243.293	1.77
243.667	1.76
244.041	1.73
244.415	1.62
244.789	1.63
245.163	1.51
245.537	1.56
245.911	1.52
246.285	1.49
246.659	1.51
247.033	1.61
247.406	1.56
247.78	1.52
248.154	1.52
248.528	1.49
248.901	1.49
249.275	1.48
249.648	1.41
250.022	1.43
250.395	1.38
250.769	1.38
251.142	1.35
251.515	1.31
251.888	1.37
252.262	1.33
252.635	1.29
253.008	1.34
253.381	1.34
253.754	1.44
254.127	1.49
254.5	1.5
254.873	1.41
255.246	1.39
255.619	1.33
255.992	1.28
256.364	1.2
256.737	1.25
257.11	1.26
257.483	1.24
257.855	1.25
258.228	1.24
258.6	1.25
258.973	1.29
259.345	1.27
259.718	1.32
260.09	1.29
260.462	1.3
260.834	1.31
261.207	1.22
261.579	1.27
261.951	1.28
262.323	1.3
262.695	1.3
263.067	1.25
263.439	1.2
263.811	1.19
264.183	1.23
264.555	1.28
264.927	1.3
265.298	1.36
265.67	1.39
266.042	1.36
266.413	1.31
266.785	1.32
267.156	1.27
267.528	1.21
267.899	1.22
268.271	1.17
268.642	1.23
269.013	1.16
269.385	1.19
269.756	1.18
270.127	1.15
270.498	1.22
270.87	1.2
271.241	1.19
271.612	1.09
271.983	1.07
272.354	1.08
272.724	1.11
273.095	1.11
273.466	1.07
273.837	1
274.208	0.97
274.578	0.91
274.949	0.9
275.32	0.86
275.69	0.9
276.061	0.86
276.431	0.91
276.802	0.96
277.172	0.91
277.542	0.88
277.913	0.85
278.283	0.87
278.653	0.83
279.023	0.83
279.394	0.84
279.764	0.82
280.134	0.77
280.504	0.78
280.874	0.85
281.244	0.85
281.614	0.79
281.983	0.76
282.353	0.77
282.723	0.8
283.093	0.83
283.462	0.84
283.832	0.85
284.202	0.81
284.571	0.83
284.941	0.8
285.31	0.77
285.68	0.7
286.049	0.69
286.418	0.69
286.788	0.83
287.157	0.83
287.526	0.8
287.895	0.82
288.264	0.83
288.633	0.86
289.002	0.84
289.371	0.91
289.74	0.82
290.109	0.78
290.478	0.76
290.847	0.82
291.216	0.8
291.585	0.77
291.953	0.72
292.322	0.75
292.691	0.75
293.059	0.71
293.428	0.76
293.796	0.77
294.165	0.79
294.533	0.84
294.901	0.91
295.27	0.91
295.638	0.95
296.006	0.89
296.374	0.9
296.743	0.9
297.111	0.92
297.479	0.88
297.847	0.84
298.215	0.85
298.583	0.77
298.95	0.84
299.318	0.86
299.686	0.88
300.054	0.83
300.422	0.8
300.789	0.81
301.157	0.85
301.525	0.83
301.892	0.83
302.26	0.89
302.627	0.84
302.994	0.87
303.362	0.86
303.729	0.92
304.097	0.86
304.464	0.84
304.831	0.79
305.198	0.78
305.565	0.76
305.932	0.76
306.299	0.72
306.666	0.74
307.033	0.72
307.4	0.72
307.767	0.74
308.134	0.74
308.501	0.71
308.867	0.72
309.234	0.76
309.601	0.8
309.967	0.84
310.334	0.81
310.701	0.82
311.067	0.83
311.433	0.82
311.8	0.81
312.166	0.76
312.533	0.84
312.899	0.81
313.265	0.81
313.631	0.84
313.997	0.81
314.363	0.8
314.729	0.76
315.096	0.78
315.461	0.79
315.827	0.81
316.193	0.91
316.559	0.89
316.925	0.89
317.291	0.87
317.656	0.87
318.022	0.83
318.388	0.81
318.753	0.81
319.119	0.79
319.484	0.81
319.85	0.8
320.215	0.8
320.581	0.75
320.946	0.77
321.311	0.81
321.676	0.76
322.042	0.8
322.407	0.8
322.772	0.78
323.137	0.8
323.502	0.81
323.867	0.8
324.232	0.79
324.597	0.82
324.962	0.8
325.327	0.77
325.691	0.79
326.056	0.76
326.421	0.81
326.785	0.81
327.15	0.85
327.514	0.82
327.879	0.85
328.243	0.75
328.608	0.76
328.972	0.69
329.337	0.71
329.701	0.74
330.065	0.73
330.429	0.67
330.794	0.68
331.158	0.67
331.522	0.71
331.886	0.7
332.25	0.71
332.614	0.73
332.978	0.69
333.342	0.69
333.705	0.7
334.069	0.7
334.433	0.66
334.797	0.59
335.16	0.58
335.524	0.51
335.887	0.53
336.251	0.5
336.614	0.45
336.978	0.45
337.341	0.49
337.705	0.5
338.068	0.62
338.431	0.58
338.794	0.54
339.158	0.5
339.521	0.5
339.884	0.46
340.247	0.38
340.61	0.37
340.973	0.43
341.336	0.43
341.699	0.44
342.062	0.5
342.424	0.51
342.787	0.47
343.15	0.42
343.512	0.41
343.875	0.42
344.238	0.46
344.6	0.44
344.963	0.39
345.325	0.42
345.688	0.49
346.05	0.48
346.412	0.52
346.775	0.43
347.137	0.39
347.499	0.38
347.861	0.45
348.223	0.49
348.585	0.5
348.947	0.5
349.309	0.51
349.671	0.52
350.033	0.47
350.395	0.52
350.757	0.5
351.118	0.54
351.48	0.54
351.842	0.58
352.203	0.63
352.565	0.59
352.927	0.65
353.288	0.65
353.65	0.71
354.011	0.73
354.372	0.77
354.734	0.78
355.095	0.77
355.456	0.73
355.817	0.77
356.179	0.75
356.54	0.77
356.901	0.74
357.262	0.73
357.623	0.71
357.984	0.69
358.345	0.72
358.705	0.66
359.066	0.59
359.427	0.59
359.788	0.52
360.148	0.43
360.509	0.44
360.87	0.46
361.23	0.37
361.591	0.41
361.951	0.36
362.312	0.33
362.672	0.3
363.032	0.26
363.393	0.2
363.753	0.19
364.113	0.18
364.473	0.28
364.833	0.28
365.193	0.23
365.553	0.19
365.913	0.26
366.273	0.2
366.633	0.25
366.993	0.23
367.353	0.12
367.713	0.1
368.072	0.22
368.432	0.16
368.792	0.2
369.151	0.3
369.511	0.29
369.87	0.23
370.23	0.29
370.589	0.28
370.949	0.32
371.308	0.39
371.667	0.35
372.027	0.39
372.386	0.38
372.745	0.41
373.104	0.41
373.463	0.21
373.822	0.14
374.181	0.17
374.54	0.17
374.899	0.06
375.258	0.15
375.617	0.18
375.975	0.25
376.334	0.38
376.693	0.45
377.052	0.42
377.41	0.4
377.769	0.43
378.127	0.38
378.486	0.36
378.844	0.34
379.202	0.34
379.561	0.28
379.919	0.24
380.277	0.24
380.636	0.33
380.994	0.4
381.352	0.4
381.71	0.33
382.068	0.33
382.426	0.45
382.784	0.59
383.142	0.61
383.5	0.6
383.857	0.7
384.215	0.69
384.573	0.59
384.931	0.57
385.288	0.56
385.646	0.52
386.003	0.43
386.361	0.48
386.718	0.44
387.076	0.37
387.433	0.35
387.791	0.33
388.148	0.37
388.505	0.4
388.862	0.41
389.22	0.4
389.577	0.32
389.934	0.25
390.291	0.25
390.648	0.26
391.005	0.26
391.362	0.11
391.718	0.06
392.075	-0.01
392.432	0.06
392.789	-0.01
393.145	-0.02
393.502	0.06
393.859	-0.02
394.215	-0.05
394.572	-0.04
394.928	-0
395.285	-0.03
395.641	0
395.997	0.07
396.354	0.18
396.71	0.15
397.066	0.14
397.422	0.18
397.778	0.17
398.134	0.13
398.491	0.22
398.846	0.12
399.202	0.18
399.558	0.23
399.914	0.23
400.27	0.33
400.626	0.28
400.981	0.35
401.337	0.34
401.693	0.39
402.048	0.36
402.404	0.4
402.759	0.46
403.115	0.48
403.47	0.49
403.826	0.48
404.181	0.47
404.536	0.45
404.892	0.45
405.247	0.32
405.602	0.42
405.957	0.42
406.312	0.4
406.667	0.46
407.022	0.46
407.377	0.4
407.732	0.48
408.087	0.41
408.442	0.44
408.796	0.38
409.151	0.47
409.506	0.56
409.86	0.47
410.215	0.56
410.57	0.51
410.924	0.52
411.279	0.48
411.633	0.47
411.987	0.54
412.342	0.56
412.696	0.59
413.05	0.66
413.404	0.65
413.758	0.7
414.113	0.77
414.467	0.77
414.821	0.77
415.175	0.78
415.529	0.8
415.882	0.79
416.236	0.79
416.59	0.86
416.944	0.88
417.298	0.92
417.651	0.95
418.005	0.9
418.358	0.84
418.712	0.93
419.065	0.84
419.419	0.84
419.772	0.84
420.126	0.81
420.479	0.92
420.832	0.9
421.185	0.91
421.539	0.92
421.892	0.85
422.245	0.88
422.598	0.86
422.951	0.8
423.304	0.73
423.657	0.69
424.01	0.75
424.363	0.69
424.715	0.72
425.068	0.72
425.421	0.72
425.773	0.68
426.126	0.67
426.479	0.63
426.831	0.55
427.184	0.62
427.536	0.58
427.889	0.63
428.241	0.76
428.593	0.77
428.945	0.83
429.298	0.79
429.65	0.82
430.002	0.88
430.354	0.92
430.706	1
431.058	0.98
431.41	0.98
431.762	1.05
432.114	1.08
432.466	1.15
432.817	1.15
433.169	1.16
433.521	1.19
433.872	1.26
434.224	1.21
434.576	1.31
434.927	1.3
435.279	1.39
435.63	1.49
435.981	1.47
436.333	1.57
436.684	1.57
437.035	1.42
437.387	1.42
437.738	1.46
438.089	1.31
438.44	1.26
438.791	1.17
439.142	1.07
439.493	1.04
439.844	1.06
440.195	1.08
440.545	1.12
440.896	1.15
441.247	1.18
441.598	1.13
441.948	1.2
442.299	1.16
442.649	1.14
443	1.12
443.35	1.07
443.701	1
444.051	0.97
444.401	1.01
444.752	1.01
445.102	0.98
445.452	0.85
445.802	0.85
446.152	0.92
446.502	0.87
446.852	0.99
447.202	0.96
447.552	1.03
447.902	1.12
448.252	1.12
448.602	2.4
448.952	2.46
449.301	2.39
449.651	2.35
450.001	2.33
450.35	2.38
450.7	2.4
451.049	2.45
451.399	2.44
451.748	2.48
452.097	2.49
452.447	2.57
452.796	2.58
453.145	2.52
453.494	2.47
453.843	2.45
454.193	2.64
454.542	2.78
454.891	2.73
455.239	2.66
455.588	2.72
455.937	2.71
456.286	2.62
456.635	2.58
456.984	2.63
457.332	1.15
457.681	1.09
458.03	1.2
458.378	1.21
458.727	1.22
459.075	1.22
459.423	1.28
459.772	1.35
460.12	1.35
460.468	1.44
460.817	1.54
461.165	1.51
461.513	1.51
461.861	1.58
462.209	1.68
462.557	1.64
462.905	1.64
463.253	1.52
463.601	1.56
463.949	1.69
464.297	1.65
464.644	1.68
464.992	1.71
465.34	1.75
465.687	1.71
466.035	1.76
466.383	1.81
466.73	1.9
467.078	1.98
467.425	2.02
467.772	2.09
468.12	2.01
468.467	1.89
468.814	1.95
469.161	1.97
469.508	1.91
469.856	1.91
470.203	1.94
470.55	1.95
470.897	1.86
471.243	1.89
471.59	1.76
471.937	1.75
472.284	1.74
472.631	1.69
472.977	1.62
473.324	1.72
473.671	1.73
474.017	1.66
474.364	1.71
474.71	1.61
475.057	1.55
475.403	1.44
475.749	1.46
476.096	1.33
476.442	1.32
476.788	1.27
477.134	1.3
477.48	1.35
477.826	1.33
478.172	1.37
478.518	1.4
478.864	1.31
479.21	1.29
479.556	1.32
479.902	1.39
480.248	1.47
480.593	1.45
480.939	1.48
481.285	1.45
481.63	1.5
481.976	1.45
482.321	1.51
482.667	1.55
483.012	1.57
483.357	1.7
483.703	1.75
484.048	1.9
484.393	1.91
484.738	2.09
485.084	2.12
485.429	2.25
485.774	2.36
486.119	2.4
486.464	2.55
486.808	2.57
487.153	2.81
487.498	3.04
487.843	3.25
488.188	3.43
488.532	3.6
488.877	3.82
489.222	4.25
489.566	4.57
489.911	4.86
490.255	5.18
490.6	5.64
490.944	5.94
491.288	6.39
491.633	6.78
491.977	7.12
492.321	7.52
492.665	7.86
493.009	8.31
493.353	8.72
493.697	9.23
494.041	9.75
494.385	10.29
494.729	10.82
495.073	11.34
495.417	11.98
495.76	12.43
496.104	13.07
496.448	13.65
496.791	14.42
497.135	15.02
497.479	15.75
497.822	16.27
498.165	16.82
498.509	17.59
498.852	18.29
499.196	18.93
499.539	19.72
499.882	20.32
500.225	21.06
500.568	21.79
500.911	22.5
501.254	23.27
501.597	24
501.94	24.67
502.283	25.41
502.626	26.11
502.969	26.82
503.312	27.42
503.654	28.12
503.997	28.82
504.34	29.51
504.682	30.16
505.025	30.83
505.367	31.42
505.71	32.18
506.052	32.83
506.395	33.64
506.737	34.29
507.079	34.85
507.421	35.51
507.764	36.18
508.106	36.77
508.448	37.48
508.79	38.13
509.132	38.84
509.474	39.43
509.816	39.94
510.158	40.64
510.499	41.22
510.841	41.68
511.183	42.18
511.525	42.58
511.866	43.22
512.208	43.69
512.549	44.22
512.891	44.72
513.232	45.24
513.574	45.74
513.915	46.22
514.256	46.6
514.598	46.99
514.939	47.46
515.28	47.94
515.621	48.4
515.962	48.81
516.303	49.22
516.644	49.68
516.985	50.1
517.326	50.39
517.667	50.61
518.008	50.93
518.349	51.29
518.69	51.52
519.03	51.86
519.371	52.1
519.712	52.43
520.052	52.76
520.393	53.02
520.733	53.32
521.074	53.6
521.414	54
521.754	54.34
522.095	54.68
522.435	54.88
522.775	55.19
523.115	55.55
523.455	55.63
523.795	55.77
524.135	55.95
524.475	56.22
524.815	56.4
525.155	56.49
525.495	56.59
525.835	56.82
526.175	56.88
526.514	57.16
526.854	57.38
527.194	57.48
527.533	57.66
527.873	57.89
528.212	58.03
528.552	58.26
528.891	58.48
529.23	58.57
529.57	58.6
529.909	58.53
530.248	58.55
530.587	58.69
530.927	58.73
531.266	58.75
531.605	58.93
531.944	59.06
532.283	59.31
532.621	59.61
532.96	59.71
533.299	59.78
533.638	59.91
533.977	59.92
534.315	60.05
534.654	60.29
534.992	60.21
535.331	60.15
535.67	60.15
536.008	60.24
536.346	60.35
536.685	60.33
537.023	60.51
537.361	60.52
537.7	60.68
538.038	60.89
538.376	61.08
538.714	61.27
539.052	61.22
539.39	61.3
539.728	61.63
540.066	61.56
540.404	61.75
540.741	61.71
541.079	61.56
541.417	61.62
541.755	61.88
542.092	61.98
542.43	62.17
542.767	62.21
543.105	62.15
543.442	62.15
543.78	62.35
544.117	62.59
544.454	62.63
544.792	62.84
545.129	63.02
545.466	63.01
545.803	63.11
546.14	63.19
546.477	63.18
546.814	63.31
547.151	63.33
547.488	63.35
547.825	63.54
548.162	63.36
548.499	63.38
548.835	63.44
549.172	63.6
549.509	63.7
549.845	63.69
550.182	63.54
550.518	63.53
550.855	63.55
551.191	63.57
551.528	63.88
551.864	64.03
552.2	63.96
552.537	64.04
552.873	64.17
553.209	64.12
553.545	64.1
553.881	64.26
554.217	64.29
554.553	64.28
554.889	64.54
555.225	64.74
555.561	64.63
555.896	64.62
556.232	64.71
556.568	64.86
556.903	64.93
557.239	64.8
557.575	64.73
557.91	64.78
558.245	65
558.581	65.06
558.916	65.09
559.252	65.21
559.587	65.19
559.922	65.07
560.257	65.05
560.592	65.09
560.928	65
561.263	65.06
561.598	65.15
561.933	65.36
562.267	65.29
562.602	65.39
562.937	65.4
563.272	65.27
563.607	65.2
563.941	65.38
564.276	65.69
564.611	65.48
564.945	65.53
565.28	65.67
565.614	65.75
565.949	65.84
566.283	65.93
566.617	65.94
566.951	66.04
567.286	66.19
567.62	66.05
567.954	66.2
568.288	66.07
568.622	66.07
568.956	66.09
569.29	66.14
569.624	66.04
569.958	65.97
570.292	66
570.626	66.08
570.959	66.15
571.293	66.24
571.627	66.3
571.96	66.35
572.294	66.36
572.627	66.34
572.961	66.48
573.294	66.48
573.627	66.53
573.961	66.53
574.294	66.57
574.627	66.61
574.961	66.52
575.294	66.5
575.627	66.4
575.96	66.36
576.293	66.19
576.626	66.26
576.959	66.32
577.292	66.31
577.624	66.24
577.957	66.35
578.29	66.33
578.623	66.2
578.955	66.2
579.288	66.05
579.62	66.15
579.953	66.1
580.285	65.99
580.618	65.93
580.95	65.97
581.282	65.99
581.615	65.99
581.947	65.98
582.279	65.99
582.611	65.99
582.943	66.03
583.275	66.09
583.607	66.13
583.939	66.14
584.271	66.31
584.603	66.52
584.935	66.6
585.267	66.67
585.598	66.74
585.93	66.86
586.262	66.8
586.593	66.94
586.925	67.1
587.256	66.97
587.588	67.14
587.919	67.03
588.25	67.1
588.582	67.06
588.913	67.12
589.244	67.02
589.575	66.85
589.907	66.94
590.238	66.91
590.569	67.19
590.9	67.38
591.231	67.3
591.562	67.26
591.892	67.3
592.223	67.41
592.554	67.26
592.885	67.15
593.215	66.94
593.546	66.9
593.877	66.84
594.207	66.71
594.538	66.84
594.868	66.87
595.198	66.8
595.529	66.98
595.859	66.93
596.189	66.89
596.52	66.93
596.85	67.07
597.18	67.08
597.51	67.16
597.84	67.31
598.17	67.27
598.5	67.16
598.83	66.9
599.16	66.79
599.489	66.92
599.819	66.99
600.149	66.92
600.479	66.9
600.808	67.04
601.138	67.01
601.467	67.2
601.797	67.17
602.126	67.18
602.456	67.38
602.785	67.22
603.114	67.1
603.443	67.07
603.773	67.11
604.102	67.16
604.431	67.26
604.76	67.24
605.089	67.25
605.418	67.22
605.747	67.18
606.076	67.1
606.405	67.11
606.733	67.34
607.062	67.38
607.391	67.29
607.72	66.92
608.048	66.87
608.377	66.84
608.705	66.79
609.034	66.75
609.362	66.62
609.69	66.67
610.019	66.79
610.347	66.87
610.675	66.72
611.004	66.63
611.332	66.7
611.66	66.51
611.988	66.35
612.316	66.3
612.644	66.24
612.972	66.22
613.3	66.31
613.627	66.36
613.955	66.48
614.283	66.48
614.611	66.3
614.938	65.93
615.266	65.95
615.593	65.89
615.921	66.23
616.248	66.12
616.576	66.25
616.903	66.17
617.23	66.21
617.558	66.51
617.885	66.57
618.212	66.34
618.539	66.11
618.866	66.22
619.193	66.41
619.52	66.2
619.847	66.62
620.174	66.65
620.501	66.5
620.828	66.39
621.155	66.26
621.481	66.21
621.808	66.06
622.135	65.88
622.461	66.15
622.788	66.41
623.114	66.64
623.441	66.61
623.767	66.76
624.093	66.72
624.42	66.71
624.746	66.67
625.072	66.9
625.398	67.13
625.725	67.02
626.051	66.81
626.377	67.44
626.703	67.63
627.029	67.75
627.354	67.81
627.68	67.98
628.006	67.67
628.332	67.49
628.658	67.83
628.983	68.02
629.309	68.07
629.634	67.45
629.96	67.66
630.285	67.57
630.611	67.48
630.936	67.58
631.262	67.48
631.587	67.54
631.912	68
632.237	68.07
632.562	68.61
632.887	68.68
633.213	68.36
633.538	68.03
633.863	68.17
634.187	68.32
634.512	67.62
634.837	68.19
635.162	67.86
635.487	67.37
635.811	67.8
636.136	68.06
636.461	68.17
636.785	68.05
637.11	68.17
637.434	68.2
637.758	68.7
638.083	69.01
638.407	69.19
638.731	69.01
639.056	68.71
639.38	68.6
639.704	68.59
640.028	68.38
640.352	68.05
640.676	67.81
641	67.54
641.324	67.79
641.648	67.72
641.972	67.64
642.295	67.22
642.619	67.12
642.943	66.63
643.266	66.51
643.59	67.06
643.913	66.51
644.237	66.55
644.56	66.05
644.884	65.94
645.207	65.91
645.53	65.81
645.854	66.12
646.177	65.59
646.5	65.77
646.823	65.39
647.146	65.92
647.469	65.93
647.792	65.59
648.115	65.78
648.438	66.21
648.761	67.03
649.084	67.05
649.406	67.66
649.729	67.18
650.052	66.95
650.374	67.03
650.697	67.28
651.019	67.11
651.342	67.26
651.664	67.29
651.987	67.2
652.309	67.13
652.631	67.46
652.953	67.49
653.276	67.43
653.598	67.51
653.92	67.37
654.242	67.3
654.564	67.24
654.886	67.41
655.208	67.22
655.53	67.33
655.851	67.46
656.173	67.42
656.495	67.37
656.816	66.88
657.138	66.79
657.46	65.92
657.781	66.41
658.103	66.84
658.424	67.19
658.746	66.27
659.067	66.69
659.388	66.49
659.709	66.19
660.031	66.55
660.352	66.49
660.673	65.87
660.994	65.74
661.315	66.33
661.636	65.97
661.957	65.18
662.278	66.33
662.599	65.81
662.919	65.77
663.24	66.06
663.561	65.38
663.881	65.31
664.202	65.06
664.523	64.88
664.843	64.85
