Data from T1_Reflection__49__20-46-18-402.txt Node

Date: Wed Jun 02 20:46:18 CEST 2021
User: mabdelazizm
Spectrometer: FLMS18565
Trigger mode: 0
Integration Time (sec): 2.000000E0
Scans to average: 1
Electric dark correction enabled: true
Nonlinearity correction enabled: false
Boxcar width: 12
XAxis mode: Wavelengths
Number of Pixels in Spectrum: 2048
>>>>>Begin Spectral Data<<<<<
179.071	71.6
179.452	58
179.833	41.78
180.214	20.91
180.595	26.54
180.977	58.39
181.358	46.51
181.739	87.5
182.12	94.6
182.501	9.34
182.882	36.43
183.262	80
183.643	-77.64
184.024	9.67
184.405	35.98
184.786	35.09
185.166	40.01
185.547	34.16
185.927	21.31
186.308	23.12
186.689	20.13
187.069	15.54
187.449	17.98
187.83	17.78
188.21	18.27
188.59	21.37
188.971	17.43
189.351	13.98
189.731	12.63
190.111	13.87
190.491	14.55
190.871	13.27
191.251	15.76
191.631	15.18
192.011	12.96
192.391	13.73
192.771	15.21
193.151	15.21
193.531	15.87
193.91	12.46
194.29	11.09
194.67	10.59
195.049	10.67
195.429	10.38
195.808	10.34
196.188	9.51
196.567	8.61
196.946	8.51
197.326	7.96
197.705	8.34
198.084	6.61
198.464	8.34
198.843	8.43
199.222	9.42
199.601	8.95
199.98	9.25
200.359	9.45
200.738	9.37
201.117	10.26
201.496	10.63
201.875	10.43
202.254	10.6
202.632	10.3
203.011	9.73
203.39	9.9
203.768	9.3
204.147	9.41
204.525	8.9
204.904	9.17
205.282	10.65
205.661	10.66
206.039	10.52
206.418	9.92
206.796	10.01
207.174	9.54
207.552	10.01
207.931	9.48
208.309	10.35
208.687	8.89
209.065	8.76
209.443	8.16
209.821	8.4
210.199	7.11
210.577	6.53
210.954	5.98
211.332	5.37
211.71	4.94
212.088	4.92
212.465	3.93
212.843	4.61
213.221	5.71
213.598	6.08
213.976	6.28
214.353	6.23
214.731	5.06
215.108	5.13
215.485	5.27
215.863	5.16
216.24	4.49
216.617	5.19
216.994	5.25
217.371	4.94
217.749	4.42
218.126	5
218.503	5.07
218.88	5.49
219.256	5.55
219.633	6.21
220.01	5.88
220.387	6.16
220.764	6.27
221.14	6.07
221.517	6.01
221.894	5.93
222.27	5.65
222.647	5.37
223.023	5.15
223.4	5.09
223.776	5.38
224.153	5.47
224.529	5.05
224.905	5.52
225.282	5.75
225.658	6.05
226.034	5.57
226.41	5.81
226.786	5.94
227.162	5.76
227.538	5.49
227.914	5.36
228.29	5.06
228.666	4.86
229.042	4.67
229.418	4.61
229.793	4.5
230.169	4.65
230.545	4.57
230.92	4.66
231.296	4.56
231.672	4.55
232.047	4.52
232.422	4.49
232.798	4.48
233.173	4.34
233.549	4.16
233.924	4.12
234.299	3.98
234.674	3.83
235.05	3.97
235.425	3.86
235.8	3.78
236.175	3.75
236.55	3.78
236.925	3.89
237.3	3.9
237.675	3.94
238.049	3.95
238.424	3.92
238.799	3.95
239.174	3.99
239.548	3.89
239.923	3.85
240.297	3.76
240.672	3.82
241.046	3.87
241.421	3.83
241.795	3.76
242.17	3.73
242.544	3.74
242.918	3.82
243.293	3.93
243.667	3.86
244.041	3.88
244.415	3.76
244.789	3.82
245.163	3.76
245.537	3.75
245.911	3.72
246.285	3.72
246.659	3.7
247.033	3.76
247.406	3.68
247.78	3.64
248.154	3.66
248.528	3.63
248.901	3.64
249.275	3.63
249.648	3.58
250.022	3.55
250.395	3.51
250.769	3.5
251.142	3.5
251.515	3.47
251.888	3.42
252.262	3.37
252.635	3.34
253.008	3.39
253.381	3.37
253.754	3.34
254.127	3.3
254.5	3.27
254.873	3.21
255.246	3.2
255.619	3.11
255.992	3.06
256.364	2.97
256.737	3.03
257.11	3.1
257.483	3.07
257.855	3.01
258.228	2.99
258.6	2.99
258.973	3.03
259.345	3.04
259.718	2.97
260.09	2.95
260.462	2.94
260.834	2.93
261.207	2.91
261.579	2.9
261.951	2.86
262.323	2.83
262.695	2.82
263.067	2.81
263.439	2.84
263.811	2.82
264.183	2.87
264.555	2.89
264.927	2.9
265.298	2.96
265.67	2.94
266.042	2.86
266.413	2.73
266.785	2.69
267.156	2.72
267.528	2.65
267.899	2.63
268.271	2.62
268.642	2.61
269.013	2.56
269.385	2.61
269.756	2.58
270.127	2.58
270.498	2.57
270.87	2.57
271.241	2.55
271.612	2.51
271.983	2.45
272.354	2.46
272.724	2.45
273.095	2.45
273.466	2.41
273.837	2.36
274.208	2.37
274.578	2.3
274.949	2.29
275.32	2.34
275.69	2.38
276.061	2.37
276.431	2.33
276.802	2.36
277.172	2.36
277.542	2.24
277.913	2.22
278.283	2.29
278.653	2.24
279.023	2.24
279.394	2.24
279.764	2.28
280.134	2.26
280.504	2.25
280.874	2.25
281.244	2.24
281.614	2.21
281.983	2.21
282.353	2.18
282.723	2.18
283.093	2.22
283.462	2.14
283.832	2.17
284.202	2.12
284.571	2.11
284.941	2.11
285.31	2.03
285.68	2.01
286.049	2.02
286.418	1.98
286.788	2.05
287.157	2.02
287.526	1.97
287.895	1.92
288.264	1.97
288.633	1.97
289.002	1.93
289.371	1.91
289.74	1.88
290.109	1.88
290.478	1.91
290.847	1.94
291.216	1.9
291.585	1.86
291.953	1.85
292.322	1.78
292.691	1.79
293.059	1.72
293.428	1.74
293.796	1.73
294.165	1.7
294.533	1.71
294.901	1.77
295.27	1.7
295.638	1.75
296.006	1.72
296.374	1.74
296.743	1.74
297.111	1.77
297.479	1.68
297.847	1.6
298.215	1.6
298.583	1.57
298.95	1.61
299.318	1.6
299.686	1.57
300.054	1.57
300.422	1.55
300.789	1.57
301.157	1.51
301.525	1.54
301.892	1.57
302.26	1.59
302.627	1.61
302.994	1.55
303.362	1.62
303.729	1.71
304.097	1.69
304.464	1.71
304.831	1.69
305.198	1.71
305.565	1.68
305.932	1.73
306.299	1.73
306.666	1.72
307.033	1.76
307.4	1.79
307.767	1.79
308.134	1.76
308.501	1.72
308.867	1.76
309.234	1.71
309.601	1.75
309.967	1.8
310.334	1.85
310.701	1.85
311.067	1.83
311.433	1.86
311.8	1.84
312.166	1.85
312.533	1.86
312.899	1.85
313.265	1.78
313.631	1.81
313.997	1.75
314.363	1.75
314.729	1.78
315.096	1.79
315.461	1.79
315.827	1.83
316.193	1.89
316.559	1.8
316.925	1.81
317.291	1.81
317.656	1.81
318.022	1.76
318.388	1.77
318.753	1.72
319.119	1.73
319.484	1.73
319.85	1.71
320.215	1.66
320.581	1.61
320.946	1.57
321.311	1.56
321.676	1.5
322.042	1.5
322.407	1.54
322.772	1.55
323.137	1.6
323.502	1.57
323.867	1.54
324.232	1.53
324.597	1.56
324.962	1.63
325.327	1.61
325.691	1.7
326.056	1.74
326.421	1.81
326.785	1.81
327.15	1.86
327.514	1.86
327.879	1.97
328.243	1.85
328.608	1.85
328.972	1.84
329.337	1.88
329.701	1.9
330.065	1.93
330.429	1.91
330.794	1.92
331.158	1.92
331.522	1.88
331.886	1.85
332.25	1.81
332.614	1.78
332.978	1.72
333.342	1.7
333.705	1.68
334.069	1.59
334.433	1.53
334.797	1.46
335.16	1.43
335.524	1.35
335.887	1.34
336.251	1.29
336.614	1.28
336.978	1.19
337.341	1.29
337.705	1.33
338.068	1.39
338.431	1.35
338.794	1.32
339.158	1.32
339.521	1.28
339.884	1.2
340.247	1.11
340.61	1.12
340.973	1.14
341.336	1.24
341.699	1.27
342.062	1.34
342.424	1.28
342.787	1.22
343.15	1.24
343.512	1.27
343.875	1.29
344.238	1.32
344.6	1.28
344.963	1.3
345.325	1.35
345.688	1.41
346.05	1.45
346.412	1.44
346.775	1.35
347.137	1.33
347.499	1.39
347.861	1.43
348.223	1.45
348.585	1.53
348.947	1.59
349.309	1.63
349.671	1.65
350.033	1.63
350.395	1.6
350.757	1.66
351.118	1.68
351.48	1.74
351.842	1.68
352.203	1.66
352.565	1.62
352.927	1.66
353.288	1.66
353.65	1.74
354.011	1.7
354.372	1.7
354.734	1.64
355.095	1.56
355.456	1.52
355.817	1.56
356.179	1.55
356.54	1.53
356.901	1.52
357.262	1.45
357.623	1.46
357.984	1.49
358.345	1.43
358.705	1.39
359.066	1.33
359.427	1.35
359.788	1.28
360.148	1.26
360.509	1.28
360.87	1.36
361.23	1.32
361.591	1.35
361.951	1.29
362.312	1.25
362.672	1.22
363.032	1.21
363.393	1.16
363.753	1.14
364.113	1.17
364.473	1.31
364.833	1.27
365.193	1.27
365.553	1.23
365.913	1.23
366.273	1.26
366.633	1.23
366.993	1.13
367.353	1.08
367.713	1.13
368.072	1.15
368.432	1.05
368.792	1.08
369.151	1.05
369.511	0.99
369.87	0.99
370.23	1.1
370.589	1.07
370.949	1.08
371.308	1.11
371.667	1.1
372.027	1.18
372.386	1.19
372.745	1.22
373.104	1.15
373.463	0.99
373.822	1.01
374.181	0.99
374.54	1.02
374.899	1
375.258	1.02
375.617	1.08
375.975	1.17
376.334	1.29
376.693	1.26
377.052	1.27
377.41	1.31
377.769	1.28
378.127	1.25
378.486	1.24
378.844	1.2
379.202	1.18
379.561	1.18
379.919	1.17
380.277	1.14
380.636	1.18
380.994	1.16
381.352	1.16
381.71	1.13
382.068	1.21
382.426	1.27
382.784	1.21
383.142	1.22
383.5	1.23
383.857	1.3
384.215	1.27
384.573	1.18
384.931	1.1
385.288	1.1
385.646	1.02
386.003	1.01
386.361	1.07
386.718	1.11
387.076	1.16
387.433	1.14
387.791	1.16
388.148	1.08
388.505	1.08
388.862	1.05
389.22	1.09
389.577	1.06
389.934	1.02
390.291	1.02
390.648	0.98
391.005	0.93
391.362	0.85
391.718	0.87
392.075	0.83
392.432	0.83
392.789	0.77
393.145	0.74
393.502	0.84
393.859	0.89
394.215	0.82
394.572	0.91
394.928	0.94
395.285	0.85
395.641	0.82
395.997	0.81
396.354	0.93
396.71	0.92
397.066	0.93
397.422	0.99
397.778	0.98
398.134	0.93
398.491	0.91
398.846	0.87
399.202	0.88
399.558	0.96
399.914	0.97
400.27	0.97
400.626	0.95
400.981	0.98
401.337	1
401.693	1.02
402.048	0.98
402.404	1.03
402.759	1.05
403.115	1.15
403.47	1.16
403.826	1.13
404.181	1.11
404.536	1.1
404.892	1.14
405.247	1.01
405.602	1.06
405.957	1.07
406.312	1.01
406.667	1.08
407.022	1.17
407.377	1.25
407.732	1.23
408.087	1.22
408.442	1.25
408.796	1.23
409.151	1.38
409.506	1.44
409.86	1.43
410.215	1.42
410.57	1.43
410.924	1.53
411.279	1.45
411.633	1.38
411.987	1.4
412.342	1.46
412.696	1.47
413.05	1.62
413.404	1.68
413.758	1.72
414.113	1.76
414.467	1.78
414.821	1.82
415.175	1.88
415.529	1.98
415.882	1.93
416.236	1.9
416.59	2.05
416.944	2.06
417.298	2.12
417.651	2.16
418.005	2.07
418.358	2.1
418.712	2.26
419.065	2.26
419.419	2.29
419.772	2.31
420.126	2.32
420.479	2.45
420.832	2.4
421.185	2.38
421.539	2.48
421.892	2.35
422.245	2.4
422.598	2.43
422.951	2.49
423.304	2.53
423.657	2.45
424.01	2.54
424.363	2.54
424.715	2.58
425.068	2.57
425.421	2.59
425.773	2.66
426.126	2.69
426.479	2.71
426.831	2.71
427.184	2.79
427.536	2.73
427.889	2.84
428.241	2.98
428.593	3.03
428.945	3.18
429.298	3.24
429.65	3.32
430.002	3.31
430.354	3.33
430.706	3.43
431.058	3.37
431.41	3.32
431.762	3.33
432.114	3.27
432.466	3.4
432.817	3.37
433.169	3.22
433.521	3.25
433.872	3.27
434.224	3.19
434.576	3.21
434.927	3.15
435.279	3.15
435.63	3.22
435.981	3.22
436.333	3.3
436.684	3.25
437.035	3.12
437.387	3.11
437.738	3.01
438.089	2.89
438.44	2.84
438.791	2.89
439.142	2.82
439.493	2.88
439.844	2.84
440.195	2.92
440.545	2.94
440.896	2.98
441.247	2.9
441.598	2.85
441.948	3.03
442.299	3.07
442.649	3.06
443	3.08
443.35	3.07
443.701	3.02
444.051	3.1
444.401	3.14
444.752	3.05
445.102	2.95
445.452	2.95
445.802	2.89
446.152	2.92
446.502	2.96
446.852	2.94
447.202	2.92
447.552	2.91
447.902	2.94
448.252	2.89
448.602	4.16
448.952	4.17
449.301	4.11
449.651	4.09
450.001	4.16
450.35	4.26
450.7	4.21
451.049	4.21
451.399	4.3
451.748	4.38
452.097	4.44
452.447	4.46
452.796	4.3
453.145	4.26
453.494	4.27
453.843	4.4
454.193	4.51
454.542	4.61
454.891	4.62
455.239	4.48
455.588	4.58
455.937	4.6
456.286	4.51
456.635	4.51
456.984	4.45
457.332	3.08
457.681	3.06
458.03	3.23
458.378	3.39
458.727	3.5
459.075	3.46
459.423	3.59
459.772	3.75
460.12	3.74
460.468	3.9
460.817	4.02
461.165	4.08
461.513	4.2
461.861	4.27
462.209	4.36
462.557	4.25
462.905	4.22
463.253	4.13
463.601	4.04
463.949	4.22
464.297	4.26
464.644	4.34
464.992	4.51
465.34	4.58
465.687	4.62
466.035	4.57
466.383	4.57
466.73	4.53
467.078	4.46
467.425	4.35
467.772	4.4
468.12	4.32
468.467	4.1
468.814	4.05
469.161	3.98
469.508	3.83
469.856	3.82
470.203	3.81
470.55	3.72
470.897	3.58
471.243	3.54
471.59	3.45
471.937	3.52
472.284	3.6
472.631	3.53
472.977	3.49
473.324	3.47
473.671	3.46
474.017	3.39
474.364	3.38
474.71	3.4
475.057	3.35
475.403	3.26
475.749	3.35
476.096	3.3
476.442	3.28
476.788	3.2
477.134	3.16
477.48	3.18
477.826	3.13
478.172	3.2
478.518	3.16
478.864	3.14
479.21	3.22
479.556	3.3
479.902	3.38
480.248	3.42
480.593	3.35
480.939	3.32
481.285	3.27
481.63	3.26
481.976	3.17
482.321	3.15
482.667	3.24
483.012	3.27
483.357	3.42
483.703	3.5
484.048	3.65
484.393	3.62
484.738	3.81
485.084	3.8
485.429	3.96
485.774	4.12
486.119	4.26
486.464	4.41
486.808	4.46
487.153	4.66
487.498	4.84
487.843	5.03
488.188	5.17
488.532	5.34
488.877	5.48
489.222	5.8
489.566	6.05
489.911	6.35
490.255	6.68
490.6	7.04
490.944	7.25
491.288	7.47
491.633	7.77
491.977	7.94
492.321	8.17
492.665	8.31
493.009	8.62
493.353	8.78
493.697	9.11
494.041	9.46
494.385	9.77
494.729	9.95
495.073	10.24
495.417	10.53
495.76	10.8
496.104	11.03
496.448	11.25
496.791	11.59
497.135	11.83
497.479	12.21
497.822	12.42
498.165	12.7
498.509	13.05
498.852	13.3
499.196	13.51
499.539	13.82
499.882	14.02
500.225	14.35
500.568	14.61
500.911	14.87
501.254	15.18
501.597	15.38
501.94	15.6
502.283	15.88
502.626	16.08
502.969	16.26
503.312	16.48
503.654	16.6
503.997	16.83
504.34	16.92
504.682	17.13
505.025	17.35
505.367	17.49
505.71	17.68
506.052	17.8
506.395	17.99
506.737	18.05
507.079	18.04
507.421	18.17
507.764	18.35
508.106	18.39
508.448	18.54
508.79	18.55
509.132	18.64
509.474	18.76
509.816	18.8
510.158	18.93
510.499	19.02
510.841	18.96
511.183	18.96
511.525	19.03
511.866	19.1
512.208	19.14
512.549	19.19
512.891	19.28
513.232	19.33
513.574	19.34
513.915	19.3
514.256	19.31
514.598	19.3
514.939	19.31
515.28	19.35
515.621	19.51
515.962	19.51
516.303	19.55
516.644	19.59
516.985	19.59
517.326	19.58
517.667	19.53
518.008	19.49
518.349	19.47
518.69	19.46
519.03	19.38
519.371	19.34
519.712	19.27
520.052	19.23
520.393	19.26
520.733	19.27
521.074	19.17
521.414	19.29
521.754	19.33
522.095	19.29
522.435	19.36
522.775	19.35
523.115	19.46
523.455	19.44
523.795	19.45
524.135	19.31
524.475	19.34
524.815	19.27
525.155	19.18
525.495	19.16
525.835	19.16
526.175	19.09
526.514	19.13
526.854	19.07
527.194	18.97
527.533	19.02
527.873	19.08
528.212	19.05
528.552	19.06
528.891	18.95
529.23	18.87
529.57	18.89
529.909	18.61
530.248	18.48
530.587	18.48
530.927	18.44
531.266	18.33
531.605	18.23
531.944	18.22
532.283	18.18
532.621	18.16
532.96	18.08
533.299	17.96
533.638	18
533.977	17.95
534.315	17.87
534.654	17.96
534.992	17.83
535.331	17.79
535.67	17.76
536.008	17.77
536.346	17.67
536.685	17.71
537.023	17.65
537.361	17.6
537.7	17.58
538.038	17.5
538.376	17.53
538.714	17.59
539.052	17.48
539.39	17.35
539.728	17.42
540.066	17.32
540.404	17.26
540.741	17.15
541.079	17.03
541.417	17.01
541.755	17.11
542.092	17.1
542.43	17.14
542.767	17.12
543.105	16.99
543.442	16.92
543.78	16.97
544.117	17.02
544.454	16.98
544.792	17
545.129	16.96
545.466	16.85
545.803	17.03
546.14	17.04
546.477	17.15
546.814	17.12
547.151	17.03
547.488	17.15
547.825	17.27
548.162	17.25
548.499	17.25
548.835	17.24
549.172	17.42
549.509	17.51
549.845	17.52
550.182	17.47
550.518	17.53
550.855	17.56
551.191	17.74
551.528	17.8
551.864	17.85
552.2	17.82
552.537	17.9
552.873	17.99
553.209	18.06
553.545	18.11
553.881	18.19
554.217	18.08
554.553	18.23
554.889	18.1
555.225	18.28
555.561	18.37
555.896	18.35
556.232	18.37
556.568	18.48
556.903	18.58
557.239	18.65
557.575	18.61
557.91	18.68
558.245	18.83
558.581	18.86
558.916	18.91
559.252	18.93
559.587	18.88
559.922	18.89
560.257	18.98
560.592	19.17
560.928	19.15
561.263	19.27
561.598	19.26
561.933	19.3
562.267	19.45
562.602	19.64
562.937	19.72
563.272	19.91
563.607	19.96
563.941	19.84
564.276	20.1
564.611	20.25
564.945	20.27
565.28	20.44
565.614	20.51
565.949	20.61
566.283	20.76
566.617	20.85
566.951	20.89
567.286	21.03
567.62	21.05
567.954	21.15
568.288	21.32
568.622	21.39
568.956	21.44
569.29	21.55
569.624	21.51
569.958	21.53
570.292	21.56
570.626	21.58
570.959	21.48
571.293	21.46
571.627	21.51
571.96	21.58
572.294	21.78
572.627	21.74
572.961	21.78
573.294	21.94
573.627	22.05
573.961	22.11
574.294	22.2
574.627	22.3
574.961	22.38
575.294	22.57
575.627	22.63
575.96	22.76
576.293	22.81
576.626	22.82
576.959	22.94
577.292	22.99
577.624	23.02
577.957	23.19
578.29	23.35
578.623	23.44
578.955	23.53
579.288	23.68
579.62	23.86
579.953	23.98
580.285	24.05
580.618	24.11
580.95	24.24
581.282	24.28
581.615	24.35
581.947	24.34
582.279	24.41
582.611	24.5
582.943	24.58
583.275	24.65
583.607	24.76
583.939	24.83
584.271	24.95
584.603	25.18
584.935	25.31
585.267	25.35
585.598	25.53
585.93	25.69
586.262	25.66
586.593	25.76
586.925	25.93
587.256	26.1
587.588	26.31
587.919	26.32
588.25	26.45
588.582	26.69
588.913	26.91
589.244	27.01
589.575	27.2
589.907	27.29
590.238	27.49
590.569	27.69
590.9	27.79
591.231	27.94
591.562	28
591.892	28.1
592.223	28.28
592.554	28.31
592.885	28.34
593.215	28.46
593.546	28.57
593.877	28.65
594.207	28.58
594.538	28.79
594.868	28.86
595.198	28.96
595.529	29.02
595.859	29.03
596.189	29.2
596.52	29.26
596.85	29.41
597.18	29.45
597.51	29.59
597.84	29.77
598.17	29.9
598.5	29.96
598.83	29.99
599.16	30.2
599.489	30.27
599.819	30.52
600.149	30.63
600.479	30.78
600.808	31.05
601.138	31.15
601.467	31.25
601.797	31.43
602.126	31.67
602.456	32.01
602.785	32.1
603.114	32.39
603.443	32.6
603.773	32.82
604.102	33.03
604.431	33.16
604.76	33.36
605.089	33.39
605.418	33.64
605.747	33.85
606.076	34.02
606.405	34.2
606.733	34.39
607.062	34.75
607.391	34.85
607.72	34.96
608.048	35.14
608.377	35.37
608.705	35.68
609.034	35.76
609.362	36.07
609.69	36.46
610.019	36.77
610.347	36.78
610.675	36.95
611.004	37.12
611.332	37.25
611.66	37.33
611.988	37.52
612.316	37.79
612.644	37.98
612.972	38.18
613.3	38.42
613.627	38.42
613.955	38.67
614.283	38.67
614.611	38.77
614.938	38.88
615.266	39.05
615.593	39.26
615.921	39.58
616.248	39.72
616.576	40.03
616.903	40.21
617.23	40.61
617.558	40.84
617.885	41.07
618.212	41.31
618.539	41.62
618.866	41.91
619.193	42.43
619.52	42.65
619.847	42.85
620.174	43.29
620.501	43.35
620.828	43.61
621.155	43.52
621.481	43.81
621.808	44.22
622.135	44.33
622.461	44.86
622.788	45.26
623.114	45.41
623.441	45.66
623.767	45.81
624.093	46.24
624.42	46.39
624.746	46.79
625.072	46.91
625.398	47.34
625.725	47.58
626.051	47.97
626.377	48.29
626.703	48.63
627.029	48.89
627.354	48.89
627.68	49.19
628.006	49.51
628.332	49.4
628.658	49.92
628.983	50.12
629.309	50.81
629.634	50.89
629.96	51.04
630.285	51.26
630.611	51.3
630.936	51.41
631.262	51.72
631.587	51.79
631.912	52.56
632.237	52.6
632.562	53.54
632.887	53.26
633.213	53.57
633.538	53.76
633.863	53.93
634.187	53.87
634.512	53.91
634.837	53.98
635.162	54.23
635.487	54.03
635.811	54.6
636.136	54.94
636.461	55.07
636.785	54.84
637.11	55.43
637.434	55.75
637.758	55.51
638.083	55.92
638.407	56.04
638.731	55.98
639.056	56.33
639.38	56.48
639.704	56.83
640.028	56.64
640.352	56.89
640.676	56.47
641	56.73
641.324	56.9
641.648	56.83
641.972	57.34
642.295	56.93
642.619	56.74
642.943	56.76
643.266	56.56
643.59	56.97
643.913	56.46
644.237	56.31
644.56	56.69
644.884	57.22
645.207	57.31
645.53	57.33
645.854	58.13
646.177	57.75
646.5	57.78
646.823	57.67
647.146	57.75
647.469	57.83
647.792	57.77
648.115	57.88
648.438	58.61
648.761	59.76
649.084	60.08
649.406	60.28
649.729	60.19
650.052	59.86
650.374	60.01
650.697	60.16
651.019	60.11
651.342	60.08
651.664	60.22
651.987	60.18
652.309	60.12
652.631	60.1
652.953	60.01
653.276	59.9
653.598	59.81
653.92	59.88
654.242	59.96
654.564	60.07
654.886	60.35
655.208	60.14
655.53	60.21
655.851	60.14
656.173	60.24
656.495	59.98
656.816	59.39
657.138	59.07
657.46	58.34
657.781	58.26
658.103	58.72
658.424	58.8
658.746	57.89
659.067	57.74
659.388	57.71
659.709	57.62
660.031	57.78
660.352	58.79
660.673	58.89
660.994	59.04
661.315	59.27
661.636	59.51
661.957	58.53
662.278	59.25
662.599	58.99
662.919	58.38
663.24	59.23
663.561	59.17
663.881	59.66
664.202	58.92
