Data from T1_Reflection__42__20-41-50-410.txt Node

Date: Wed Jun 02 20:41:50 CEST 2021
User: mabdelazizm
Spectrometer: FLMS18565
Trigger mode: 0
Integration Time (sec): 2.000000E0
Scans to average: 1
Electric dark correction enabled: true
Nonlinearity correction enabled: false
Boxcar width: 12
XAxis mode: Wavelengths
Number of Pixels in Spectrum: 2048
>>>>>Begin Spectral Data<<<<<
179.071	83.52
179.452	99.11
179.833	114.03
180.214	101.82
180.595	97.53
180.977	137.76
181.358	103.17
181.739	183.33
182.12	196.71
182.501	135.16
182.882	183.42
183.262	284
183.643	-350.41
184.024	-38.12
184.405	-4.67
184.786	7.23
185.166	7.28
185.547	4.59
185.927	-5.53
186.308	1.73
186.689	3.25
187.069	0.96
187.449	1.79
187.83	1.53
188.21	3.26
188.59	4.43
188.971	4.07
189.351	3.62
189.731	0.93
190.111	-0.38
190.491	-0.04
190.871	-1.32
191.251	1.52
191.631	1.82
192.011	-0.71
192.391	0.05
192.771	2.93
193.151	0.99
193.531	0.82
193.91	-0.88
194.29	-1.97
194.67	-0.92
195.049	0.47
195.429	1.42
195.808	0.42
196.188	0.32
196.567	-0.9
196.946	-0.93
197.326	-0.65
197.705	-1.32
198.084	-1
198.464	-0.57
198.843	0.21
199.222	1.8
199.601	2.76
199.98	3.5
200.359	4.24
200.738	4.77
201.117	4.58
201.496	5.55
201.875	6.93
202.254	7.32
202.632	8.03
203.011	7.66
203.39	8.96
203.768	8.58
204.147	8.27
204.525	6.96
204.904	7.82
205.282	9.48
205.661	8.68
206.039	9.21
206.418	9.92
206.796	10.02
207.174	9.25
207.552	9.5
207.931	8.96
208.309	9.16
208.687	8.64
209.065	8.65
209.443	8.31
209.821	8.25
210.199	7.09
210.577	6.35
210.954	5.56
211.332	3.86
211.71	3.67
212.088	3.71
212.465	3
212.843	2.78
213.221	3.77
213.598	4.02
213.976	4.35
214.353	4.03
214.731	2.77
215.108	2.46
215.485	2.14
215.863	1
216.24	0.5
216.617	0.72
216.994	0.85
217.371	1.05
217.749	0.51
218.126	0.27
218.503	-0.35
218.88	-0.19
219.256	-0.67
219.633	-0.52
220.01	-0.39
220.387	-0.41
220.764	0.11
221.14	-0.35
221.517	-0.12
221.894	0.18
222.27	-0.04
222.647	-0.28
223.023	-0.31
223.4	0.26
223.776	0.37
224.153	0.6
224.529	0.79
224.905	1.33
225.282	1.63
225.658	1.79
226.034	1.84
226.41	1.8
226.786	1.99
227.162	2.16
227.538	2.19
227.914	2.27
228.29	1.9
228.666	1.96
229.042	1.89
229.418	2
229.793	2.09
230.169	2.18
230.545	1.99
230.92	1.96
231.296	1.87
231.672	1.82
232.047	1.86
232.422	1.76
232.798	1.43
233.173	1.3
233.549	1.25
233.924	1.2
234.299	1.19
234.674	1.15
235.05	1.22
235.425	1.13
235.8	1.15
236.175	1.06
236.55	1
236.925	1
237.3	0.96
237.675	0.97
238.049	0.94
238.424	0.94
238.799	0.95
239.174	1.03
239.548	0.98
239.923	1.02
240.297	0.92
240.672	0.95
241.046	1.03
241.421	1.01
241.795	0.99
242.17	1.09
242.544	1.13
242.918	1.11
243.293	1.16
243.667	1.04
244.041	1.02
244.415	1
244.789	1.04
245.163	0.95
245.537	1.01
245.911	0.97
246.285	0.99
246.659	1.03
247.033	1.11
247.406	1.1
247.78	1.11
248.154	1.08
248.528	1.02
248.901	1.02
249.275	1.05
249.648	1
250.022	0.96
250.395	0.92
250.769	0.93
251.142	0.97
251.515	0.94
251.888	0.98
252.262	0.95
252.635	0.93
253.008	0.95
253.381	0.94
253.754	0.94
254.127	0.92
254.5	0.91
254.873	0.82
255.246	0.86
255.619	0.79
255.992	0.77
256.364	0.77
256.737	0.8
257.11	0.83
257.483	0.78
257.855	0.75
258.228	0.76
258.6	0.78
258.973	0.83
259.345	0.84
259.718	0.82
260.09	0.81
260.462	0.76
260.834	0.72
261.207	0.63
261.579	0.65
261.951	0.66
262.323	0.74
262.695	0.73
263.067	0.74
263.439	0.72
263.811	0.71
264.183	0.75
264.555	0.77
264.927	0.79
265.298	0.8
265.67	0.77
266.042	0.74
266.413	0.69
266.785	0.76
267.156	0.79
267.528	0.73
267.899	0.69
268.271	0.67
268.642	0.72
269.013	0.71
269.385	0.7
269.756	0.69
270.127	0.72
270.498	0.76
270.87	0.75
271.241	0.69
271.612	0.57
271.983	0.55
272.354	0.49
272.724	0.5
273.095	0.51
273.466	0.5
273.837	0.45
274.208	0.46
274.578	0.47
274.949	0.51
275.32	0.47
275.69	0.42
276.061	0.36
276.431	0.26
276.802	0.33
277.172	0.36
277.542	0.34
277.913	0.31
278.283	0.3
278.653	0.29
279.023	0.31
279.394	0.32
279.764	0.32
280.134	0.31
280.504	0.36
280.874	0.44
281.244	0.39
281.614	0.38
281.983	0.38
282.353	0.36
282.723	0.35
283.093	0.42
283.462	0.38
283.832	0.35
284.202	0.28
284.571	0.34
284.941	0.39
285.31	0.33
285.68	0.41
286.049	0.38
286.418	0.32
286.788	0.45
287.157	0.44
287.526	0.44
287.895	0.45
288.264	0.47
288.633	0.47
289.002	0.46
289.371	0.5
289.74	0.49
290.109	0.43
290.478	0.47
290.847	0.49
291.216	0.46
291.585	0.44
291.953	0.44
292.322	0.37
292.691	0.39
293.059	0.37
293.428	0.4
293.796	0.35
294.165	0.36
294.533	0.39
294.901	0.45
295.27	0.42
295.638	0.49
296.006	0.34
296.374	0.37
296.743	0.38
297.111	0.36
297.479	0.29
297.847	0.26
298.215	0.28
298.583	0.23
298.95	0.29
299.318	0.27
299.686	0.25
300.054	0.28
300.422	0.3
300.789	0.29
301.157	0.27
301.525	0.27
301.892	0.29
302.26	0.29
302.627	0.28
302.994	0.29
303.362	0.29
303.729	0.35
304.097	0.22
304.464	0.23
304.831	0.15
305.198	0.24
305.565	0.16
305.932	0.14
306.299	0.12
306.666	0.14
307.033	0.17
307.4	0.13
307.767	0.08
308.134	0.05
308.501	0.1
308.867	0.12
309.234	0.12
309.601	0.12
309.967	0.18
310.334	0.21
310.701	0.23
311.067	0.2
311.433	0.24
311.8	0.21
312.166	0.24
312.533	0.21
312.899	0.26
313.265	0.26
313.631	0.25
313.997	0.28
314.363	0.24
314.729	0.27
315.096	0.31
315.461	0.34
315.827	0.36
316.193	0.38
316.559	0.37
316.925	0.44
317.291	0.38
317.656	0.32
318.022	0.36
318.388	0.35
318.753	0.31
319.119	0.31
319.484	0.33
319.85	0.33
320.215	0.34
320.581	0.28
320.946	0.26
321.311	0.23
321.676	0.24
322.042	0.19
322.407	0.24
322.772	0.27
323.137	0.26
323.502	0.27
323.867	0.26
324.232	0.22
324.597	0.21
324.962	0.26
325.327	0.24
325.691	0.24
326.056	0.21
326.421	0.25
326.785	0.27
327.15	0.27
327.514	0.32
327.879	0.41
328.243	0.34
328.608	0.32
328.972	0.27
329.337	0.27
329.701	0.33
330.065	0.39
330.429	0.35
330.794	0.36
331.158	0.37
331.522	0.35
331.886	0.33
332.25	0.34
332.614	0.32
332.978	0.29
333.342	0.35
333.705	0.37
334.069	0.29
334.433	0.27
334.797	0.29
335.16	0.27
335.524	0.24
335.887	0.25
336.251	0.21
336.614	0.09
336.978	0.1
337.341	0.14
337.705	0.18
338.068	0.23
338.431	0.23
338.794	0.17
339.158	0.11
339.521	0.12
339.884	0.11
340.247	0.05
340.61	0.08
340.973	0.07
341.336	0.07
341.699	0.11
342.062	0.16
342.424	0.09
342.787	0.06
343.15	0.08
343.512	0.08
343.875	0.11
344.238	0.15
344.6	0.07
344.963	0.09
345.325	0.09
345.688	0.13
346.05	0.05
346.412	0.03
346.775	-0.05
347.137	-0.04
347.499	-0.02
347.861	0.01
348.223	0.05
348.585	0.03
348.947	0.02
349.309	0.01
349.671	0.02
350.033	0.02
350.395	-0.04
350.757	-0.06
351.118	-0.03
351.48	0.01
351.842	0.02
352.203	0.05
352.565	-0.02
352.927	0.01
353.288	-0.02
353.65	0.11
354.011	0.04
354.372	0.1
354.734	0.14
355.095	0.14
355.456	0.11
355.817	0.13
356.179	0.14
356.54	0.12
356.901	0.11
357.262	0.04
357.623	0.06
357.984	0.09
358.345	0.13
358.705	0.06
359.066	0.01
359.427	0.16
359.788	0.08
360.148	0.04
360.509	-0.02
360.87	-0.02
361.23	-0.13
361.591	-0.1
361.951	-0.22
362.312	-0.28
362.672	-0.36
363.032	-0.37
363.393	-0.37
363.753	-0.37
364.113	-0.31
364.473	-0.23
364.833	-0.23
365.193	-0.26
365.553	-0.3
365.913	-0.24
366.273	-0.23
366.633	-0.22
366.993	-0.24
367.353	-0.34
367.713	-0.28
368.072	-0.26
368.432	-0.38
368.792	-0.29
369.151	-0.24
369.511	-0.24
369.87	-0.26
370.23	-0.18
370.589	-0.18
370.949	-0.11
371.308	-0.01
371.667	0.01
372.027	0.07
372.386	0.04
372.745	-0.01
373.104	-0.08
373.463	-0.15
373.822	-0.21
374.181	-0.24
374.54	-0.21
374.899	-0.3
375.258	-0.28
375.617	-0.24
375.975	-0.18
376.334	-0.07
376.693	-0.05
377.052	-0.05
377.41	-0
377.769	-0.04
378.127	-0.1
378.486	-0.1
378.844	-0.1
379.202	-0.06
379.561	-0.09
379.919	-0.16
380.277	-0.16
380.636	-0.11
380.994	-0.11
381.352	-0.09
381.71	-0.12
382.068	-0.08
382.426	-0.06
382.784	0.03
383.142	0.02
383.5	0.09
383.857	0.1
384.215	0.08
384.573	0.01
384.931	-0.13
385.288	-0.15
385.646	-0.24
386.003	-0.25
386.361	-0.24
386.718	-0.21
387.076	-0.25
387.433	-0.27
387.791	-0.3
388.148	-0.38
388.505	-0.36
388.862	-0.35
389.22	-0.43
389.577	-0.46
389.934	-0.47
390.291	-0.42
390.648	-0.4
391.005	-0.42
391.362	-0.5
391.718	-0.54
392.075	-0.54
392.432	-0.61
392.789	-0.56
393.145	-0.52
393.502	-0.44
393.859	-0.38
394.215	-0.36
394.572	-0.21
394.928	-0.17
395.285	-0.27
395.641	-0.27
395.997	-0.23
396.354	-0.11
396.71	-0.13
397.066	-0.14
397.422	-0.12
397.778	-0.13
398.134	-0.1
398.491	-0.08
398.846	-0.12
399.202	-0.16
399.558	-0.08
399.914	-0.08
400.27	-0.02
400.626	-0.05
400.981	-0.03
401.337	-0.05
401.693	-0.06
402.048	-0.1
402.404	-0.05
402.759	-0.03
403.115	0.01
403.47	-0.1
403.826	-0.11
404.181	0.01
404.536	-0.07
404.892	-0.04
405.247	-0.14
405.602	-0.12
405.957	-0.12
406.312	-0.18
406.667	-0.07
407.022	-0.09
407.377	-0.11
407.732	-0.11
408.087	-0.16
408.442	-0.17
408.796	-0.21
409.151	-0.18
409.506	-0.16
409.86	-0.16
410.215	-0.04
410.57	-0.08
410.924	-0.04
411.279	-0.09
411.633	-0.08
411.987	-0.15
412.342	-0.13
412.696	-0.16
413.05	-0.21
413.404	-0.14
413.758	-0.1
414.113	-0.08
414.467	-0.03
414.821	0.09
415.175	0.27
415.529	0.32
415.882	0.36
416.236	0.36
416.59	0.49
416.944	0.57
417.298	0.64
417.651	0.68
418.005	0.7
418.358	0.73
418.712	0.84
419.065	0.81
419.419	0.8
419.772	0.81
420.126	0.82
420.479	0.94
420.832	1.01
421.185	1.09
421.539	1.26
421.892	1.29
422.245	1.38
422.598	1.38
422.951	1.34
423.304	1.4
423.657	1.38
424.01	1.42
424.363	1.45
424.715	1.54
425.068	1.64
425.421	1.66
425.773	1.66
426.126	1.71
426.479	1.82
426.831	1.82
427.184	1.98
427.536	2.04
427.889	2.11
428.241	2.33
428.593	2.41
428.945	2.5
429.298	2.51
429.65	2.56
430.002	2.65
430.354	2.65
430.706	2.7
431.058	2.68
431.41	2.82
431.762	3.02
432.114	3.04
432.466	3.11
432.817	3.08
433.169	3.02
433.521	3.15
433.872	3.19
434.224	3.18
434.576	3.25
434.927	3.19
435.279	3.3
435.63	3.35
435.981	3.35
436.333	3.35
436.684	3.43
437.035	3.35
437.387	3.39
437.738	3.43
438.089	3.36
438.44	3.44
438.791	3.35
439.142	3.29
439.493	3.35
439.844	3.34
440.195	3.24
440.545	3.21
440.896	3.28
441.247	3.33
441.598	3.34
441.948	3.48
442.299	3.45
442.649	3.4
443	3.41
443.35	3.42
443.701	3.35
444.051	3.3
444.401	3.34
444.752	3.28
445.102	3.25
445.452	3.18
445.802	3.2
446.152	3.22
446.502	3.23
446.852	3.28
447.202	3.26
447.552	3.31
447.902	3.37
448.252	3.33
448.602	3.57
448.952	3.63
449.301	3.71
449.651	3.65
450.001	3.7
450.35	3.8
450.7	3.84
451.049	3.86
451.399	4.01
451.748	4.06
452.097	4.23
452.447	4.37
452.796	4.41
453.145	4.49
453.494	4.59
453.843	4.71
454.193	4.94
454.542	5.14
454.891	5.3
455.239	5.23
455.588	5.24
455.937	5.27
456.286	5.32
456.635	5.46
456.984	5.62
457.332	5.56
457.681	5.66
458.03	5.76
458.378	5.86
458.727	5.93
459.075	5.97
459.423	6.14
459.772	6.37
460.12	6.39
460.468	6.58
460.817	6.65
461.165	6.78
461.513	6.85
461.861	6.87
462.209	6.99
462.557	6.9
462.905	6.85
463.253	6.72
463.601	6.72
463.949	6.93
464.297	7.09
464.644	7.14
464.992	7.2
465.34	7.24
465.687	7.21
466.035	7.19
466.383	7.06
466.73	7.1
467.078	7.12
467.425	7.08
467.772	7.1
468.12	6.94
468.467	6.65
468.814	6.66
469.161	6.55
469.508	6.39
469.856	6.29
470.203	6.23
470.55	6.14
470.897	5.96
471.243	5.9
471.59	5.79
471.937	5.82
472.284	5.68
472.631	5.49
472.977	5.34
473.324	5.34
473.671	5.35
474.017	5.2
474.364	5.15
474.71	5.08
475.057	5.22
475.403	5.07
475.749	5.14
476.096	5.16
476.442	5.16
476.788	5.14
477.134	5.22
477.48	5.28
477.826	5.39
478.172	5.48
478.518	5.48
478.864	5.5
479.21	5.6
479.556	5.76
479.902	5.98
480.248	6.14
480.593	6.2
480.939	6.36
481.285	6.49
481.63	6.65
481.976	6.72
482.321	6.85
482.667	7.1
483.012	7.29
483.357	7.61
483.703	7.82
484.048	8.14
484.393	8.32
484.738	8.58
485.084	8.9
485.429	9.23
485.774	9.62
486.119	9.97
486.464	10.27
486.808	10.63
487.153	11.17
487.498	11.77
487.843	12.36
488.188	12.85
488.532	13.38
488.877	13.96
489.222	14.65
489.566	15.3
489.911	16.05
490.255	16.88
490.6	17.65
490.944	18.34
491.288	19.04
491.633	19.82
491.977	20.48
492.321	21.18
492.665	21.81
493.009	22.52
493.353	23.34
493.697	24.08
494.041	24.94
494.385	25.72
494.729	26.44
495.073	27.19
495.417	27.96
495.76	28.69
496.104	29.37
496.448	29.97
496.791	30.81
497.135	31.52
497.479	32.3
497.822	32.99
498.165	33.67
498.509	34.44
498.852	35.03
499.196	35.76
499.539	36.47
499.882	37.11
500.225	37.78
500.568	38.48
500.911	39.15
501.254	39.9
501.597	40.55
501.94	41.02
502.283	41.59
502.626	42.11
502.969	42.61
503.312	43.23
503.654	43.82
503.997	44.48
504.34	45.02
504.682	45.48
505.025	46.07
505.367	46.57
505.71	47.09
506.052	47.48
506.395	47.98
506.737	48.24
507.079	48.54
507.421	49.04
507.764	49.52
508.106	49.93
508.448	50.32
508.79	50.63
509.132	51.05
509.474	51.39
509.816	51.69
510.158	52.14
510.499	52.57
510.841	52.9
511.183	53.15
511.525	53.42
511.866	53.6
512.208	53.79
512.549	53.96
512.891	54.15
513.232	54.48
513.574	54.71
513.915	54.79
514.256	55.05
514.598	55.36
514.939	55.64
515.28	56
515.621	56.32
515.962	56.53
516.303	56.65
516.644	56.89
516.985	57.17
517.326	57.41
517.667	57.37
518.008	57.44
518.349	57.59
518.69	57.72
519.03	57.87
519.371	57.91
519.712	57.99
520.052	58.15
520.393	58.22
520.733	58.43
521.074	58.62
521.414	58.74
521.754	58.91
522.095	58.97
522.435	59.13
522.775	59.29
523.115	59.6
523.455	59.51
523.795	59.63
524.135	59.62
524.475	59.81
524.815	59.91
525.155	59.96
525.495	59.88
525.835	59.94
526.175	60.04
526.514	60.27
526.854	60.23
527.194	60.19
527.533	60.06
527.873	60.13
528.212	60.24
528.552	60.22
528.891	60.41
529.23	60.41
529.57	60.35
529.909	60.4
530.248	60.28
530.587	60.35
530.927	60.42
531.266	60.31
531.605	60.21
531.944	60.28
532.283	60.41
532.621	60.54
532.96	60.5
533.299	60.4
533.638	60.43
533.977	60.44
534.315	60.48
534.654	60.69
534.992	60.59
535.331	60.64
535.67	60.67
536.008	60.93
536.346	60.85
536.685	60.89
537.023	61.12
537.361	61.07
537.7	61.16
538.038	61.07
538.376	61.16
538.714	61.26
539.052	61.3
539.39	61.27
539.728	61.53
540.066	61.47
540.404	61.59
540.741	61.56
541.079	61.5
541.417	61.57
541.755	61.75
542.092	61.8
542.43	61.94
542.767	61.96
543.105	61.72
543.442	61.74
543.78	61.73
544.117	61.73
544.454	61.64
544.792	61.81
545.129	61.77
545.466	61.47
545.803	61.61
546.14	61.57
546.477	61.77
546.814	61.69
547.151	61.7
547.488	61.83
547.825	61.91
548.162	61.82
548.499	61.82
548.835	61.8
549.172	61.85
549.509	61.9
549.845	61.71
550.182	61.61
550.518	61.65
550.855	61.75
551.191	61.81
551.528	61.95
551.864	61.99
552.2	62.07
552.537	62.2
552.873	62.26
553.209	62.14
553.545	62.1
553.881	62.4
554.217	62.27
554.553	62.33
554.889	62.39
555.225	62.69
555.561	62.57
555.896	62.46
556.232	62.58
556.568	62.52
556.903	62.53
557.239	62.6
557.575	62.44
557.91	62.5
558.245	62.6
558.581	62.76
558.916	62.87
559.252	62.74
559.587	62.67
559.922	62.77
560.257	62.77
560.592	62.85
560.928	62.84
561.263	62.85
561.598	63
561.933	63.17
562.267	63.16
562.602	63.32
562.937	63.36
563.272	63.42
563.607	63.12
563.941	63.27
564.276	63.58
564.611	63.53
564.945	63.65
565.28	63.72
565.614	63.74
565.949	63.98
566.283	64.07
566.617	64.25
566.951	64.15
567.286	64.06
567.62	64.23
567.954	64.31
568.288	64.09
568.622	63.95
568.956	63.86
569.29	63.81
569.624	63.81
569.958	63.76
570.292	63.83
570.626	63.79
570.959	63.92
571.293	63.93
571.627	63.94
571.96	64.08
572.294	64.15
572.627	64.09
572.961	64.1
573.294	64.1
573.627	64.15
573.961	64.21
574.294	64.13
574.627	64.12
574.961	63.98
575.294	64.13
575.627	64.14
575.96	64.04
576.293	63.88
576.626	63.97
576.959	64.08
577.292	64.16
577.624	64.14
577.957	64.22
578.29	64.22
578.623	64.16
578.955	64.25
579.288	64.08
579.62	63.97
579.953	63.87
580.285	63.78
580.618	63.73
580.95	63.64
581.282	63.6
581.615	63.59
581.947	63.53
582.279	63.46
582.611	63.56
582.943	63.59
583.275	63.65
583.607	63.61
583.939	63.63
584.271	63.66
584.603	63.85
584.935	63.86
585.267	63.9
585.598	63.87
585.93	64.06
586.262	63.96
586.593	64.06
586.925	64.02
587.256	63.9
587.588	63.96
587.919	64.03
588.25	64.19
588.582	64.24
588.913	64.21
589.244	64.19
589.575	64.27
589.907	64.3
590.238	64.36
590.569	64.5
590.9	64.5
591.231	64.53
591.562	64.52
591.892	64.45
592.223	64.55
592.554	64.58
592.885	64.62
593.215	64.53
593.546	64.51
593.877	64.41
594.207	64.16
594.538	64.18
594.868	64.09
595.198	64.14
595.529	64.17
595.859	64.2
596.189	64.39
596.52	64.37
596.85	64.48
597.18	64.53
597.51	64.5
597.84	64.49
598.17	64.47
598.5	64.46
598.83	64.43
599.16	64.32
599.489	64.26
599.819	64.46
600.149	64.39
600.479	64.31
600.808	64.19
601.138	64.19
601.467	64.25
601.797	64.26
602.126	64.36
602.456	64.45
602.785	64.42
603.114	64.58
603.443	64.61
603.773	64.74
604.102	64.81
604.431	64.64
604.76	64.59
605.089	64.57
605.418	64.53
605.747	64.62
606.076	64.68
606.405	64.51
606.733	64.55
607.062	64.55
607.391	64.61
607.72	64.38
608.048	64.22
608.377	64.15
608.705	64.15
609.034	64.21
609.362	63.98
609.69	64.09
610.019	64.29
610.347	64.28
610.675	64.23
611.004	64.09
611.332	64.13
611.66	63.95
611.988	63.8
612.316	63.72
612.644	63.78
612.972	63.68
613.3	63.53
613.627	63.4
613.955	63.34
614.283	63.24
614.611	63.43
614.938	63.25
615.266	63.02
615.593	62.85
615.921	63.05
616.248	62.79
616.576	63.01
616.903	62.81
617.23	62.86
617.558	63.07
617.885	63.01
618.212	62.76
618.539	62.76
618.866	62.89
619.193	63.1
619.52	62.84
619.847	63.12
620.174	62.92
620.501	62.78
620.828	62.58
621.155	62.44
621.481	62.43
621.808	62.66
622.135	62.52
622.461	62.47
622.788	62.49
623.114	62.63
623.441	62.91
623.767	63.05
624.093	62.84
624.42	62.89
624.746	63.12
625.072	63.2
625.398	63.04
625.725	62.76
626.051	62.61
626.377	62.71
626.703	62.8
627.029	62.73
627.354	62.92
627.68	62.82
628.006	62.84
628.332	63
628.658	63
628.983	63.14
629.309	63.41
629.634	63.4
629.96	63.19
630.285	63.3
630.611	63.59
630.936	63.64
631.262	63.45
631.587	63.53
631.912	64
632.237	64.33
632.562	64.57
632.887	64.22
633.213	64.15
633.538	64.14
633.863	64.39
634.187	64.61
634.512	64.4
634.837	64.02
635.162	63.82
635.487	62.99
635.811	63.27
636.136	62.91
636.461	62.7
636.785	62.75
637.11	62.94
637.434	62.9
637.758	62.98
638.083	63.41
638.407	63.67
638.731	62.84
639.056	62.82
639.38	62.66
639.704	62.56
640.028	62.04
640.352	62
640.676	61.9
641	61.54
641.324	61.95
641.648	61.42
641.972	61.61
642.295	61.22
642.619	61.48
642.943	61.5
643.266	62.01
643.59	62.32
643.913	62.02
644.237	62.16
644.56	62.03
644.884	61.97
645.207	61.81
645.53	61.98
645.854	62.38
646.177	61.81
646.5	61.88
646.823	62.13
647.146	62.04
647.469	62.17
647.792	61.89
648.115	61.9
648.438	62.02
648.761	63.5
649.084	63.21
649.406	63.66
649.729	63.43
650.052	63.49
650.374	63.57
650.697	63.56
651.019	63.6
651.342	63.34
651.664	63.44
651.987	63.31
652.309	63.16
652.631	63.25
652.953	63.2
653.276	63.08
653.598	63
653.92	63.04
654.242	62.92
654.564	62.86
654.886	62.92
655.208	62.98
655.53	63.04
655.851	62.91
656.173	63.07
656.495	63.1
656.816	62.26
657.138	62.14
657.46	60.98
657.781	61.07
658.103	60.21
658.424	59.78
658.746	58.79
659.067	58.29
659.388	58.39
659.709	57.69
660.031	57.95
660.352	58.34
660.673	58.83
660.994	59.23
